SpectraSuite Data File
++++++++++++++++++++++++++++++++++++
Date: Fri Dec 06 15:55:33 CET 2024
User: student
Dark Spectrum Present: No
Reference Spectrum Present: No
Number of Sampled Component Spectra: 1
Spectrometers: HR4C155
Integration Time (usec): 100000 (HR4C155)
Spectra Averaged: 1 (HR4C155)
Boxcar Smoothing: 0 (HR4C155)
Correct for Electrical Dark: No (HR4C155)
Strobe/Lamp Enabled: No (HR4C155)
Correct for Detector Non-linearity: No (HR4C155)
Correct for Stray Light: No (HR4C155)
Number of Pixels in Processed Spectrum: 3648
>>>>>Begin Processed Spectral Data<<<<<
195.39	652.00
195.66	652.00
195.93	652.00
196.20	684.00
196.46	726.00
196.73	828.00
197.00	845.00
197.27	836.00
197.54	861.00
197.81	860.00
198.08	856.00
198.35	898.00
198.61	905.00
198.88	860.00
199.15	866.00
199.42	885.00
199.69	885.00
199.96	871.00
200.23	889.00
200.49	877.00
200.76	906.00
201.03	892.00
201.30	878.00
201.57	938.00
201.84	951.00
202.11	912.00
202.38	918.00
202.64	937.00
202.91	944.00
203.18	865.00
203.45	942.00
203.72	999.00
203.99	932.00
204.25	925.00
204.52	919.00
204.79	930.00
205.06	941.00
205.33	886.00
205.60	905.00
205.87	928.00
206.13	948.00
206.40	916.00
206.67	904.00
206.94	946.00
207.21	936.00
207.48	914.00
207.75	909.00
208.01	935.00
208.28	939.00
208.55	902.00
208.82	927.00
209.09	916.00
209.36	936.00
209.62	916.00
209.89	931.00
210.16	943.00
210.43	968.00
210.70	890.00
210.97	892.00
211.23	938.00
211.50	966.00
211.77	897.00
212.04	909.00
212.31	913.00
212.58	954.00
212.84	906.00
213.11	903.00
213.38	882.00
213.65	917.00
213.92	887.00
214.18	899.00
214.45	946.00
214.72	943.00
214.99	897.00
215.26	905.00
215.53	887.00
215.79	936.00
216.06	929.00
216.33	938.00
216.60	910.00
216.87	929.00
217.13	868.00
217.40	877.00
217.67	925.00
217.94	965.00
218.21	881.00
218.48	930.00
218.74	985.00
219.01	947.00
219.28	879.00
219.55	890.00
219.82	936.00
220.08	933.00
220.35	903.00
220.62	904.00
220.89	949.00
221.16	984.00
221.42	925.00
221.69	907.00
221.96	948.00
222.23	958.00
222.50	936.00
222.76	924.00
223.03	920.00
223.30	912.00
223.57	896.00
223.84	867.00
224.10	890.00
224.37	920.00
224.64	898.00
224.91	934.00
225.18	953.00
225.44	957.00
225.71	904.00
225.98	924.00
226.25	959.00
226.51	968.00
226.78	916.00
227.05	905.00
227.32	921.00
227.59	921.00
227.85	906.00
228.12	898.00
228.39	951.00
228.66	958.00
228.92	965.00
229.19	922.00
229.46	949.00
229.73	918.00
230.00	898.00
230.26	920.00
230.53	955.00
230.80	938.00
231.07	876.00
231.33	885.00
231.60	907.00
231.87	927.00
232.14	901.00
232.41	959.00
232.67	944.00
232.94	940.00
233.21	893.00
233.48	920.00
233.74	925.00
234.01	912.00
234.28	887.00
234.55	913.00
234.81	907.00
235.08	950.00
235.35	908.00
235.62	903.00
235.88	905.00
236.15	932.00
236.42	925.00
236.69	918.00
236.95	957.00
237.22	916.00
237.49	900.00
237.76	920.00
238.02	953.00
238.29	966.00
238.56	913.00
238.83	901.00
239.09	923.00
239.36	943.00
239.63	909.00
239.90	920.00
240.16	967.00
240.43	979.00
240.70	909.00
240.97	909.00
241.23	900.00
241.50	925.00
241.77	911.00
242.04	899.00
242.30	885.00
242.57	903.00
242.84	875.00
243.11	891.00
243.37	886.00
243.64	948.00
243.91	904.00
244.18	901.00
244.44	906.00
244.71	897.00
244.98	892.00
245.24	897.00
245.51	925.00
245.78	943.00
246.05	875.00
246.31	895.00
246.58	933.00
246.85	901.00
247.12	898.00
247.38	932.00
247.65	938.00
247.92	940.00
248.18	915.00
248.45	924.00
248.72	923.00
248.99	934.00
249.25	879.00
249.52	898.00
249.79	926.00
250.05	935.00
250.32	897.00
250.59	903.00
250.86	905.00
251.12	916.00
251.39	886.00
251.66	923.00
251.92	950.00
252.19	955.00
252.46	907.00
252.73	948.00
252.99	953.00
253.26	957.00
253.53	901.00
253.79	931.00
254.06	940.00
254.33	912.00
254.60	878.00
254.86	889.00
255.13	930.00
255.40	949.00
255.66	892.00
255.93	926.00
256.20	936.00
256.46	932.00
256.73	894.00
257.00	922.00
257.26	934.00
257.53	941.00
257.80	920.00
258.07	921.00
258.33	966.00
258.60	948.00
258.87	894.00
259.13	920.00
259.40	908.00
259.67	956.00
259.93	903.00
260.20	925.00
260.47	943.00
260.73	911.00
261.00	895.00
261.27	913.00
261.53	946.00
261.80	912.00
262.07	876.00
262.34	924.00
262.60	891.00
262.87	917.00
263.14	886.00
263.40	921.00
263.67	919.00
263.94	926.00
264.20	895.00
264.47	877.00
264.74	900.00
265.00	915.00
265.27	880.00
265.54	899.00
265.80	952.00
266.07	961.00
266.34	885.00
266.60	912.00
266.87	939.00
267.14	930.00
267.40	891.00
267.67	882.00
267.94	920.00
268.20	901.00
268.47	885.00
268.74	893.00
269.00	907.00
269.27	899.00
269.54	866.00
269.80	879.00
270.07	952.00
270.33	930.00
270.60	906.00
270.87	921.00
271.13	922.00
271.40	929.00
271.67	868.00
271.93	868.00
272.20	920.00
272.47	899.00
272.73	870.00
273.00	913.00
273.27	901.00
273.53	946.00
273.80	902.00
274.07	881.00
274.33	902.00
274.60	947.00
274.86	918.00
275.13	902.00
275.40	895.00
275.66	940.00
275.93	891.00
276.20	905.00
276.46	904.00
276.73	907.00
277.00	890.00
277.26	908.00
277.53	928.00
277.79	925.00
278.06	901.00
278.33	962.00
278.59	948.00
278.86	886.00
279.13	904.00
279.39	916.00
279.66	937.00
279.93	933.00
280.19	881.00
280.46	901.00
280.72	915.00
280.99	942.00
281.26	900.00
281.52	894.00
281.79	922.00
282.05	923.00
282.32	899.00
282.59	894.00
282.85	928.00
283.12	942.00
283.39	922.00
283.65	930.00
283.92	927.00
284.18	937.00
284.45	912.00
284.72	904.00
284.98	899.00
285.25	927.00
285.51	930.00
285.78	921.00
286.05	914.00
286.31	928.00
286.58	885.00
286.84	881.00
287.11	904.00
287.38	915.00
287.64	930.00
287.91	895.00
288.17	924.00
288.44	932.00
288.71	873.00
288.97	895.00
289.24	931.00
289.50	924.00
289.77	915.00
290.04	875.00
290.30	892.00
290.57	922.00
290.83	869.00
291.10	891.00
291.37	935.00
291.63	923.00
291.90	914.00
292.16	906.00
292.43	924.00
292.70	899.00
292.96	862.00
293.23	874.00
293.49	885.00
293.76	945.00
294.02	895.00
294.29	893.00
294.56	922.00
294.82	945.00
295.09	900.00
295.35	885.00
295.62	953.00
295.89	962.00
296.15	884.00
296.42	873.00
296.68	898.00
296.95	909.00
297.21	917.00
297.48	911.00
297.75	917.00
298.01	935.00
298.28	901.00
298.54	923.00
298.81	922.00
299.07	928.00
299.34	891.00
299.61	892.00
299.87	925.00
300.14	919.00
300.40	933.00
300.67	909.00
300.93	923.00
301.20	972.00
301.46	881.00
301.73	908.00
302.00	933.00
302.26	912.00
302.53	905.00
302.79	889.00
303.06	927.00
303.32	961.00
303.59	881.00
303.85	883.00
304.12	892.00
304.39	922.00
304.65	900.00
304.92	899.00
305.18	922.00
305.45	927.00
305.71	895.00
305.98	901.00
306.24	909.00
306.51	907.00
306.77	887.00
307.04	902.00
307.31	949.00
307.57	932.00
307.84	859.00
308.10	903.00
308.37	880.00
308.63	914.00
308.90	884.00
309.16	905.00
309.43	927.00
309.69	917.00
309.96	905.00
310.22	906.00
310.49	905.00
310.76	927.00
311.02	877.00
311.29	908.00
311.55	906.00
311.82	912.00
312.08	907.00
312.35	904.00
312.61	930.00
312.88	947.00
313.14	901.00
313.41	893.00
313.67	883.00
313.94	918.00
314.20	917.00
314.47	908.00
314.73	902.00
315.00	893.00
315.26	872.00
315.53	913.00
315.79	922.00
316.06	926.00
316.32	902.00
316.59	926.00
316.85	921.00
317.12	922.00
317.39	862.00
317.65	893.00
317.92	890.00
318.18	906.00
318.45	897.00
318.71	948.00
318.98	943.00
319.24	936.00
319.51	914.00
319.77	916.00
320.04	902.00
320.30	917.00
320.57	881.00
320.83	886.00
321.10	879.00
321.36	908.00
321.63	878.00
321.89	893.00
322.16	932.00
322.42	929.00
322.69	876.00
322.95	878.00
323.22	918.00
323.48	939.00
323.75	884.00
324.01	891.00
324.28	919.00
324.54	938.00
324.80	902.00
325.07	911.00
325.33	932.00
325.60	921.00
325.86	873.00
326.13	883.00
326.39	908.00
326.66	901.00
326.92	837.00
327.19	890.00
327.45	949.00
327.72	964.00
327.98	893.00
328.25	889.00
328.51	918.00
328.78	911.00
329.04	875.00
329.31	908.00
329.57	908.00
329.84	908.00
330.10	882.00
330.37	913.00
330.63	936.00
330.89	948.00
331.16	890.00
331.42	887.00
331.69	932.00
331.95	917.00
332.22	915.00
332.48	939.00
332.75	924.00
333.01	889.00
333.28	881.00
333.54	887.00
333.81	909.00
334.07	927.00
334.34	922.00
334.60	906.00
334.86	941.00
335.13	956.00
335.39	894.00
335.66	898.00
335.92	943.00
336.19	946.00
336.45	862.00
336.72	894.00
336.98	898.00
337.24	932.00
337.51	888.00
337.77	911.00
338.04	930.00
338.30	919.00
338.57	873.00
338.83	898.00
339.10	931.00
339.36	915.00
339.63	883.00
339.89	863.00
340.15	909.00
340.42	933.00
340.68	929.00
340.95	938.00
341.21	929.00
341.48	911.00
341.74	861.00
342.00	862.00
342.27	924.00
342.53	926.00
342.80	891.00
343.06	880.00
343.33	894.00
343.59	940.00
343.85	894.00
344.12	911.00
344.38	965.00
344.65	958.00
344.91	905.00
345.18	892.00
345.44	914.00
345.70	890.00
345.97	853.00
346.23	883.00
346.50	940.00
346.76	928.00
347.03	919.00
347.29	905.00
347.55	888.00
347.82	893.00
348.08	861.00
348.35	886.00
348.61	956.00
348.87	934.00
349.14	858.00
349.40	876.00
349.67	915.00
349.93	901.00
350.20	899.00
350.46	910.00
350.72	923.00
350.99	907.00
351.25	886.00
351.52	882.00
351.78	900.00
352.04	921.00
352.31	888.00
352.57	897.00
352.84	891.00
353.10	910.00
353.36	907.00
353.63	893.00
353.89	902.00
354.16	916.00
354.42	897.00
354.68	880.00
354.95	922.00
355.21	920.00
355.48	893.00
355.74	940.00
356.00	949.00
356.27	950.00
356.53	880.00
356.80	877.00
357.06	921.00
357.32	930.00
357.59	912.00
357.85	929.00
358.11	963.00
358.38	926.00
358.64	905.00
358.91	898.00
359.17	897.00
359.43	917.00
359.70	903.00
359.96	919.00
360.22	937.00
360.49	915.00
360.75	900.00
361.02	882.00
361.28	899.00
361.54	928.00
361.81	875.00
362.07	889.00
362.33	890.00
362.60	896.00
362.86	879.00
363.13	907.00
363.39	933.00
363.65	933.00
363.92	849.00
364.18	860.00
364.44	915.00
364.71	924.00
364.97	891.00
365.24	905.00
365.50	935.00
365.76	937.00
366.03	892.00
366.29	915.00
366.55	923.00
366.82	911.00
367.08	866.00
367.34	893.00
367.61	927.00
367.87	940.00
368.13	897.00
368.40	884.00
368.66	949.00
368.93	923.00
369.19	858.00
369.45	863.00
369.72	925.00
369.98	928.00
370.24	885.00
370.51	898.00
370.77	924.00
371.03	915.00
371.30	899.00
371.56	914.00
371.82	942.00
372.09	922.00
372.35	912.00
372.61	904.00
372.88	905.00
373.14	895.00
373.40	885.00
373.67	884.00
373.93	903.00
374.19	925.00
374.46	883.00
374.72	886.00
374.98	918.00
375.25	925.00
375.51	907.00
375.77	923.00
376.04	921.00
376.30	922.00
376.56	879.00
376.83	901.00
377.09	908.00
377.35	918.00
377.62	898.00
377.88	872.00
378.14	901.00
378.41	927.00
378.67	892.00
378.93	888.00
379.20	912.00
379.46	887.00
379.72	869.00
379.99	890.00
380.25	903.00
380.51	882.00
380.77	879.00
381.04	901.00
381.30	917.00
381.56	941.00
381.83	920.00
382.09	895.00
382.35	906.00
382.62	916.00
382.88	921.00
383.14	894.00
383.41	917.00
383.67	907.00
383.93	899.00
384.20	892.00
384.46	915.00
384.72	937.00
384.98	885.00
385.25	906.00
385.51	922.00
385.77	910.00
386.04	882.00
386.30	879.00
386.56	939.00
386.82	969.00
387.09	891.00
387.35	899.00
387.61	969.00
387.88	945.00
388.14	902.00
388.40	907.00
388.67	905.00
388.93	906.00
389.19	893.00
389.45	898.00
389.72	911.00
389.98	929.00
390.24	906.00
390.51	885.00
390.77	935.00
391.03	931.00
391.29	872.00
391.56	903.00
391.82	909.00
392.08	965.00
392.35	907.00
392.61	894.00
392.87	912.00
393.13	940.00
393.40	890.00
393.66	890.00
393.92	910.00
394.18	900.00
394.45	867.00
394.71	879.00
394.97	901.00
395.24	895.00
395.50	868.00
395.76	899.00
396.02	914.00
396.29	928.00
396.55	868.00
396.81	841.00
397.07	878.00
397.34	871.00
397.60	862.00
397.86	872.00
398.12	888.00
398.39	932.00
398.65	884.00
398.91	892.00
399.17	906.00
399.44	865.00
399.70	830.00
399.96	871.00
400.22	883.00
400.49	934.00
400.75	908.00
401.01	892.00
401.27	902.00
401.54	920.00
401.80	890.00
402.06	874.00
402.32	924.00
402.59	919.00
402.85	880.00
403.11	896.00
403.37	884.00
403.64	927.00
403.90	874.00
404.16	888.00
404.42	910.00
404.69	909.00
404.95	885.00
405.21	851.00
405.47	893.00
405.74	929.00
406.00	893.00
406.26	877.00
406.52	901.00
406.79	920.00
407.05	883.00
407.31	898.00
407.57	891.00
407.83	905.00
408.10	844.00
408.36	877.00
408.62	904.00
408.88	898.00
409.15	877.00
409.41	851.00
409.67	882.00
409.93	923.00
410.20	913.00
410.46	883.00
410.72	886.00
410.98	906.00
411.24	883.00
411.51	884.00
411.77	894.00
412.03	912.00
412.29	914.00
412.55	928.00
412.82	890.00
413.08	920.00
413.34	896.00
413.60	916.00
413.87	912.00
414.13	926.00
414.39	875.00
414.65	899.00
414.91	926.00
415.18	907.00
415.44	876.00
415.70	871.00
415.96	908.00
416.22	916.00
416.49	870.00
416.75	869.00
417.01	889.00
417.27	904.00
417.53	873.00
417.80	899.00
418.06	922.00
418.32	931.00
418.58	879.00
418.84	872.00
419.11	916.00
419.37	919.00
419.63	878.00
419.89	880.00
420.15	888.00
420.42	910.00
420.68	874.00
420.94	883.00
421.20	911.00
421.46	907.00
421.72	903.00
421.99	889.00
422.25	893.00
422.51	907.00
422.77	895.00
423.03	900.00
423.30	908.00
423.56	931.00
423.82	914.00
424.08	904.00
424.34	923.00
424.60	919.00
424.87	882.00
425.13	874.00
425.39	877.00
425.65	895.00
425.91	854.00
426.18	888.00
426.44	914.00
426.70	871.00
426.96	838.00
427.22	841.00
427.48	886.00
427.75	898.00
428.01	822.00
428.27	877.00
428.53	918.00
428.79	880.00
429.05	870.00
429.32	878.00
429.58	916.00
429.84	898.00
430.10	881.00
430.36	894.00
430.62	918.00
430.88	916.00
431.15	901.00
431.41	908.00
431.67	912.00
431.93	892.00
432.19	862.00
432.45	884.00
432.72	907.00
432.98	908.00
433.24	925.00
433.50	989.00
433.76	899.00
434.02	894.00
434.28	870.00
434.55	878.00
434.81	918.00
435.07	936.00
435.33	855.00
435.59	865.00
435.85	897.00
436.11	917.00
436.38	870.00
436.64	870.00
436.90	899.00
437.16	905.00
437.42	885.00
437.68	887.00
437.94	911.00
438.21	916.00
438.47	917.00
438.73	899.00
438.99	897.00
439.25	905.00
439.51	869.00
439.77	884.00
440.03	897.00
440.30	911.00
440.56	884.00
440.82	904.00
441.08	909.00
441.34	912.00
441.60	864.00
441.86	886.00
442.12	925.00
442.39	931.00
442.65	903.00
442.91	888.00
443.17	881.00
443.43	906.00
443.69	901.00
443.95	897.00
444.21	914.00
444.47	924.00
444.74	881.00
445.00	897.00
445.26	894.00
445.52	909.00
445.78	871.00
446.04	854.00
446.30	914.00
446.56	913.00
446.82	867.00
447.09	888.00
447.35	900.00
447.61	908.00
447.87	893.00
448.13	911.00
448.39	938.00
448.65	923.00
448.91	863.00
449.17	879.00
449.43	913.00
449.70	913.00
449.96	859.00
450.22	872.00
450.48	897.00
450.74	934.00
451.00	873.00
451.26	872.00
451.52	896.00
451.78	894.00
452.04	878.00
452.31	908.00
452.57	927.00
452.83	891.00
453.09	864.00
453.35	888.00
453.61	925.00
453.87	916.00
454.13	900.00
454.39	907.00
454.65	963.00
454.91	955.00
455.17	885.00
455.44	871.00
455.70	905.00
455.96	917.00
456.22	872.00
456.48	881.00
456.74	895.00
457.00	861.00
457.26	826.00
457.52	860.00
457.78	885.00
458.04	925.00
458.30	863.00
458.56	880.00
458.82	899.00
459.09	877.00
459.35	846.00
459.61	870.00
459.87	922.00
460.13	924.00
460.39	869.00
460.65	867.00
460.91	916.00
461.17	893.00
461.43	859.00
461.69	865.00
461.95	892.00
462.21	910.00
462.47	890.00
462.73	916.00
462.99	923.00
463.26	902.00
463.52	856.00
463.78	852.00
464.04	862.00
464.30	883.00
464.56	869.00
464.82	891.00
465.08	936.00
465.34	941.00
465.60	896.00
465.86	890.00
466.12	899.00
466.38	877.00
466.64	857.00
466.90	870.00
467.16	898.00
467.42	906.00
467.68	883.00
467.94	906.00
468.20	923.00
468.46	898.00
468.72	869.00
468.98	897.00
469.25	918.00
469.51	880.00
469.77	900.00
470.03	894.00
470.29	896.00
470.55	915.00
470.81	877.00
471.07	900.00
471.33	920.00
471.59	933.00
471.85	882.00
472.11	885.00
472.37	898.00
472.63	894.00
472.89	909.00
473.15	887.00
473.41	905.00
473.67	905.00
473.93	839.00
474.19	867.00
474.45	878.00
474.71	890.00
474.97	866.00
475.23	875.00
475.49	892.00
475.75	884.00
476.01	904.00
476.27	919.00
476.53	934.00
476.79	925.00
477.05	882.00
477.31	887.00
477.57	908.00
477.83	901.00
478.09	843.00
478.35	876.00
478.61	932.00
478.87	897.00
479.13	856.00
479.39	899.00
479.65	923.00
479.91	919.00
480.17	893.00
480.43	920.00
480.69	887.00
480.95	907.00
481.21	874.00
481.47	886.00
481.73	903.00
481.99	891.00
482.25	862.00
482.51	872.00
482.77	928.00
483.03	909.00
483.29	898.00
483.55	892.00
483.81	929.00
484.07	916.00
484.33	868.00
484.59	878.00
484.85	900.00
485.11	906.00
485.37	889.00
485.63	873.00
485.89	865.00
486.15	885.00
486.41	862.00
486.67	884.00
486.93	892.00
487.19	894.00
487.45	885.00
487.71	869.00
487.97	924.00
488.23	928.00
488.49	877.00
488.75	880.00
489.01	902.00
489.27	936.00
489.53	887.00
489.79	894.00
490.05	899.00
490.31	922.00
490.57	903.00
490.83	937.00
491.08	890.00
491.34	898.00
491.60	866.00
491.86	899.00
492.12	914.00
492.38	924.00
492.64	848.00
492.90	876.00
493.16	925.00
493.42	883.00
493.68	879.00
493.94	894.00
494.20	879.00
494.46	904.00
494.72	861.00
494.98	886.00
495.24	907.00
495.50	894.00
495.76	894.00
496.02	899.00
496.28	920.00
496.54	918.00
496.80	893.00
497.05	871.00
497.31	912.00
497.57	901.00
497.83	863.00
498.09	890.00
498.35	930.00
498.61	917.00
498.87	895.00
499.13	901.00
499.39	906.00
499.65	902.00
499.91	899.00
500.17	882.00
500.43	955.00
500.69	981.00
500.95	884.00
501.20	915.00
501.46	927.00
501.72	930.00
501.98	921.00
502.24	911.00
502.50	927.00
502.76	901.00
503.02	878.00
503.28	879.00
503.54	949.00
503.80	953.00
504.06	898.00
504.32	905.00
504.58	907.00
504.83	888.00
505.09	886.00
505.35	894.00
505.61	883.00
505.87	915.00
506.13	902.00
506.39	879.00
506.65	916.00
506.91	930.00
507.17	898.00
507.43	881.00
507.68	894.00
507.94	920.00
508.20	872.00
508.46	867.00
508.72	938.00
508.98	938.00
509.24	875.00
509.50	892.00
509.76	885.00
510.02	902.00
510.28	863.00
510.53	873.00
510.79	901.00
511.05	901.00
511.31	859.00
511.57	876.00
511.83	916.00
512.09	924.00
512.35	869.00
512.61	878.00
512.87	902.00
513.12	916.00
513.38	874.00
513.64	905.00
513.90	925.00
514.16	919.00
514.42	879.00
514.68	898.00
514.94	931.00
515.20	935.00
515.45	881.00
515.71	890.00
515.97	902.00
516.23	915.00
516.49	888.00
516.75	889.00
517.01	906.00
517.27	894.00
517.53	856.00
517.78	876.00
518.04	899.00
518.30	906.00
518.56	868.00
518.82	901.00
519.08	938.00
519.34	891.00
519.60	888.00
519.85	903.00
520.11	887.00
520.37	902.00
520.63	870.00
520.89	898.00
521.15	910.00
521.41	907.00
521.66	875.00
521.92	874.00
522.18	924.00
522.44	935.00
522.70	882.00
522.96	854.00
523.22	910.00
523.48	914.00
523.73	869.00
523.99	875.00
524.25	949.00
524.51	928.00
524.77	858.00
525.03	862.00
525.29	911.00
525.54	912.00
525.80	868.00
526.06	874.00
526.32	887.00
526.58	892.00
526.84	870.00
527.09	861.00
527.35	882.00
527.61	883.00
527.87	867.00
528.13	904.00
528.39	899.00
528.65	896.00
528.90	859.00
529.16	879.00
529.42	868.00
529.68	902.00
529.94	874.00
530.20	878.00
530.45	892.00
530.71	905.00
530.97	861.00
531.23	883.00
531.49	898.00
531.75	889.00
532.00	873.00
532.26	874.00
532.52	898.00
532.78	884.00
533.04	853.00
533.30	860.00
533.55	900.00
533.81	904.00
534.07	854.00
534.33	870.00
534.59	905.00
534.85	906.00
535.10	873.00
535.36	867.00
535.62	905.00
535.88	911.00
536.14	848.00
536.39	865.00
536.65	922.00
536.91	923.00
537.17	867.00
537.43	880.00
537.69	918.00
537.94	913.00
538.20	865.00
538.46	890.00
538.72	897.00
538.98	916.00
539.23	872.00
539.49	860.00
539.75	921.00
540.01	926.00
540.27	891.00
540.52	924.00
540.78	923.00
541.04	944.00
541.30	857.00
541.56	861.00
541.81	935.00
542.07	968.00
542.33	885.00
542.59	885.00
542.85	912.00
543.10	893.00
543.36	860.00
543.62	901.00
543.88	883.00
544.14	878.00
544.39	855.00
544.65	885.00
544.91	937.00
545.17	907.00
545.43	873.00
545.68	878.00
545.94	910.00
546.20	927.00
546.46	866.00
546.71	868.00
546.97	906.00
547.23	917.00
547.49	881.00
547.75	856.00
548.00	893.00
548.26	928.00
548.52	872.00
548.78	858.00
549.03	883.00
549.29	893.00
549.55	867.00
549.81	874.00
550.07	907.00
550.32	918.00
550.58	868.00
550.84	900.00
551.10	901.00
551.35	898.00
551.61	878.00
551.87	894.00
552.13	916.00
552.39	893.00
552.64	841.00
552.90	875.00
553.16	905.00
553.42	900.00
553.67	852.00
553.93	891.00
554.19	924.00
554.45	934.00
554.70	892.00
554.96	871.00
555.22	886.00
555.48	905.00
555.73	873.00
555.99	877.00
556.25	916.00
556.51	892.00
556.76	861.00
557.02	893.00
557.28	912.00
557.54	888.00
557.79	861.00
558.05	885.00
558.31	878.00
558.57	913.00
558.82	878.00
559.08	851.00
559.34	879.00
559.60	898.00
559.85	889.00
560.11	891.00
560.37	901.00
560.63	877.00
560.88	864.00
561.14	870.00
561.40	930.00
561.66	887.00
561.91	866.00
562.17	886.00
562.43	909.00
562.68	925.00
562.94	899.00
563.20	913.00
563.46	910.00
563.71	922.00
563.97	869.00
564.23	898.00
564.49	925.00
564.74	894.00
565.00	851.00
565.26	885.00
565.51	902.00
565.77	898.00
566.03	864.00
566.29	889.00
566.54	885.00
566.80	889.00
567.06	882.00
567.31	914.00
567.57	929.00
567.83	883.00
568.09	874.00
568.34	866.00
568.60	871.00
568.86	908.00
569.11	884.00
569.37	870.00
569.63	912.00
569.89	927.00
570.14	836.00
570.40	864.00
570.66	894.00
570.91	902.00
571.17	868.00
571.43	908.00
571.69	937.00
571.94	931.00
572.20	852.00
572.46	884.00
572.71	915.00
572.97	907.00
573.23	874.00
573.48	873.00
573.74	908.00
574.00	909.00
574.26	864.00
574.51	887.00
574.77	903.00
575.03	897.00
575.28	864.00
575.54	848.00
575.80	878.00
576.05	898.00
576.31	860.00
576.57	854.00
576.82	877.00
577.08	898.00
577.34	869.00
577.59	879.00
577.85	915.00
578.11	882.00
578.37	868.00
578.62	870.00
578.88	914.00
579.14	916.00
579.39	887.00
579.65	893.00
579.91	883.00
580.16	915.00
580.42	883.00
580.68	899.00
580.93	919.00
581.19	901.00
581.45	851.00
581.70	872.00
581.96	913.00
582.22	922.00
582.47	883.00
582.73	873.00
582.99	909.00
583.24	901.00
583.50	858.00
583.76	868.00
584.01	898.00
584.27	932.00
584.53	886.00
584.78	898.00
585.04	872.00
585.30	892.00
585.55	891.00
585.81	880.00
586.07	916.00
586.32	937.00
586.58	890.00
586.83	885.00
587.09	889.00
587.35	882.00
587.60	863.00
587.86	876.00
588.12	880.00
588.37	902.00
588.63	886.00
588.89	890.00
589.14	922.00
589.40	898.00
589.66	865.00
589.91	884.00
590.17	914.00
590.43	869.00
590.68	857.00
590.94	888.00
591.19	914.00
591.45	901.00
591.71	857.00
591.96	876.00
592.22	912.00
592.48	921.00
592.73	856.00
592.99	871.00
593.25	888.00
593.50	911.00
593.76	857.00
594.01	875.00
594.27	912.00
594.53	905.00
594.78	874.00
595.04	885.00
595.30	886.00
595.55	891.00
595.81	843.00
596.06	891.00
596.32	928.00
596.58	926.00
596.83	887.00
597.09	890.00
597.35	899.00
597.60	881.00
597.86	853.00
598.11	875.00
598.37	917.00
598.63	917.00
598.88	876.00
599.14	884.00
599.39	919.00
599.65	905.00
599.91	851.00
600.16	878.00
600.42	908.00
600.67	924.00
600.93	870.00
601.19	900.00
601.44	937.00
601.70	921.00
601.95	888.00
602.21	908.00
602.47	904.00
602.72	908.00
602.98	877.00
603.23	903.00
603.49	917.00
603.75	951.00
604.00	892.00
604.26	885.00
604.51	919.00
604.77	934.00
605.03	878.00
605.28	904.00
605.54	958.00
605.79	961.00
606.05	868.00
606.31	893.00
606.56	919.00
606.82	937.00
607.07	907.00
607.33	919.00
607.59	932.00
607.84	897.00
608.10	873.00
608.35	892.00
608.61	917.00
608.86	929.00
609.12	907.00
609.38	942.00
609.63	948.00
609.89	943.00
610.14	875.00
610.40	905.00
610.65	925.00
610.91	926.00
611.17	879.00
611.42	894.00
611.68	947.00
611.93	957.00
612.19	925.00
612.44	941.00
612.70	954.00
612.96	903.00
613.21	901.00
613.47	908.00
613.72	924.00
613.98	943.00
614.23	920.00
614.49	937.00
614.75	968.00
615.00	958.00
615.26	939.00
615.51	938.00
615.77	956.00
616.02	975.00
616.28	943.00
616.53	956.00
616.79	977.00
617.05	956.00
617.30	927.00
617.56	953.00
617.81	988.00
618.07	959.00
618.32	928.00
618.58	967.00
618.83	1014.00
619.09	1013.00
619.34	966.00
619.60	970.00
619.86	1037.00
620.11	1058.00
620.37	1022.00
620.62	1000.00
620.88	1027.00
621.13	1030.00
621.39	986.00
621.64	1032.00
621.90	1065.00
622.15	1034.00
622.41	1007.00
622.66	1036.00
622.92	1081.00
623.18	1073.00
623.43	1012.00
623.69	1053.00
623.94	1101.00
624.20	1090.00
624.45	1066.00
624.71	1101.00
624.96	1129.00
625.22	1199.00
625.47	1124.00
625.73	1096.00
625.98	1114.00
626.24	1104.00
626.49	1095.00
626.75	1143.00
627.00	1214.00
627.26	1227.00
627.51	1201.00
627.77	1201.00
628.02	1202.00
628.28	1215.00
628.53	1217.00
628.79	1256.00
629.05	1273.00
629.30	1243.00
629.56	1246.00
629.81	1299.00
630.07	1330.00
630.32	1336.00
630.58	1328.00
630.83	1309.00
631.09	1312.00
631.34	1388.00
631.60	1426.00
631.85	1444.00
632.11	1419.00
632.36	1413.00
632.62	1419.00
632.87	1424.00
633.13	1431.00
633.38	1439.00
633.64	1465.00
633.89	1530.00
634.15	1604.00
634.40	1570.00
634.66	1442.00
634.91	1490.00
635.17	1533.00
635.42	1603.00
635.68	1639.00
635.93	1678.00
636.18	1699.00
636.44	1636.00
636.69	1523.00
636.95	1485.00
637.20	1508.00
637.46	1540.00
637.71	1584.00
637.97	1624.00
638.22	1598.00
638.48	1573.00
638.73	1542.00
638.99	1539.00
639.24	1594.00
639.50	1587.00
639.75	1546.00
640.01	1552.00
640.26	1596.00
640.52	1589.00
640.77	1502.00
641.03	1480.00
641.28	1452.00
641.54	1390.00
641.79	1345.00
642.04	1365.00
642.30	1331.00
642.55	1345.00
642.81	1351.00
643.06	1271.00
643.32	1286.00
643.57	1281.00
643.83	1218.00
644.08	1185.00
644.34	1187.00
644.59	1190.00
644.85	1117.00
645.10	1126.00
645.35	1117.00
645.61	1114.00
645.86	1082.00
646.12	1093.00
646.37	1126.00
646.63	1117.00
646.88	1028.00
647.14	1059.00
647.39	1076.00
647.65	1085.00
647.90	991.00
648.15	1027.00
648.41	1035.00
648.66	1038.00
648.92	976.00
649.17	998.00
649.43	1017.00
649.68	991.00
649.94	982.00
650.19	957.00
650.44	996.00
650.70	956.00
650.95	913.00
651.21	954.00
651.46	979.00
651.72	977.00
651.97	947.00
652.23	932.00
652.48	968.00
652.73	947.00
652.99	918.00
653.24	936.00
653.50	925.00
653.75	906.00
654.01	909.00
654.26	916.00
654.51	933.00
654.77	954.00
655.02	919.00
655.28	883.00
655.53	901.00
655.79	930.00
656.04	895.00
656.29	900.00
656.55	895.00
656.80	931.00
657.06	892.00
657.31	889.00
657.56	910.00
657.82	909.00
658.07	896.00
658.33	916.00
658.58	899.00
658.84	938.00
659.09	892.00
659.34	902.00
659.60	906.00
659.85	916.00
660.11	894.00
660.36	896.00
660.61	898.00
660.87	881.00
661.12	865.00
661.38	889.00
661.63	890.00
661.88	899.00
662.14	884.00
662.39	890.00
662.65	929.00
662.90	953.00
663.15	880.00
663.41	889.00
663.66	926.00
663.92	948.00
664.17	883.00
664.42	905.00
664.68	931.00
664.93	899.00
665.19	870.00
665.44	870.00
665.69	876.00
665.95	906.00
666.20	868.00
666.45	904.00
666.71	916.00
666.96	919.00
667.22	851.00
667.47	863.00
667.72	875.00
667.98	901.00
668.23	874.00
668.49	916.00
668.74	919.00
668.99	920.00
669.25	871.00
669.50	876.00
669.75	898.00
670.01	910.00
670.26	844.00
670.52	867.00
670.77	907.00
671.02	899.00
671.28	861.00
671.53	870.00
671.78	902.00
672.04	908.00
672.29	884.00
672.54	879.00
672.80	903.00
673.05	887.00
673.31	859.00
673.56	905.00
673.81	901.00
674.07	890.00
674.32	887.00
674.57	878.00
674.83	890.00
675.08	893.00
675.33	876.00
675.59	899.00
675.84	901.00
676.09	879.00
676.35	875.00
676.60	900.00
676.86	895.00
677.11	919.00
677.36	867.00
677.62	899.00
677.87	929.00
678.12	932.00
678.38	850.00
678.63	874.00
678.88	927.00
679.14	934.00
679.39	858.00
679.64	893.00
679.90	888.00
680.15	901.00
680.40	898.00
680.66	880.00
680.91	909.00
681.16	901.00
681.42	865.00
681.67	860.00
681.92	890.00
682.18	935.00
682.43	866.00
682.68	872.00
682.94	889.00
683.19	882.00
683.44	861.00
683.70	886.00
683.95	897.00
684.20	897.00
684.46	878.00
684.71	893.00
684.96	879.00
685.22	893.00
685.47	878.00
685.72	906.00
685.98	921.00
686.23	879.00
686.48	854.00
686.74	895.00
686.99	919.00
687.24	915.00
687.50	857.00
687.75	856.00
688.00	898.00
688.25	915.00
688.51	893.00
688.76	905.00
689.01	886.00
689.27	872.00
689.52	846.00
689.77	878.00
690.03	884.00
690.28	890.00
690.53	866.00
690.79	890.00
691.04	892.00
691.29	902.00
691.54	848.00
691.80	868.00
692.05	882.00
692.30	891.00
692.56	869.00
692.81	890.00
693.06	881.00
693.32	868.00
693.57	862.00
693.82	897.00
694.07	922.00
694.33	909.00
694.58	850.00
694.83	905.00
695.09	891.00
695.34	917.00
695.59	897.00
695.84	894.00
696.10	934.00
696.35	905.00
696.60	840.00
696.86	861.00
697.11	898.00
697.36	913.00
697.61	864.00
697.87	894.00
698.12	881.00
698.37	892.00
698.63	876.00
698.88	866.00
699.13	888.00
699.38	883.00
699.64	863.00
699.89	874.00
700.14	857.00
700.39	882.00
700.65	877.00
700.90	912.00
701.15	905.00
701.40	906.00
701.66	876.00
701.91	894.00
702.16	882.00
702.42	887.00
702.67	852.00
702.92	867.00
703.17	888.00
703.43	877.00
703.68	862.00
703.93	909.00
704.18	920.00
704.44	887.00
704.69	858.00
704.94	896.00
705.19	886.00
705.45	916.00
705.70	894.00
705.95	857.00
706.20	875.00
706.46	906.00
706.71	873.00
706.96	877.00
707.21	901.00
707.47	885.00
707.72	885.00
707.97	892.00
708.22	925.00
708.48	930.00
708.73	875.00
708.98	855.00
709.23	898.00
709.49	885.00
709.74	848.00
709.99	873.00
710.24	887.00
710.50	892.00
710.75	893.00
711.00	897.00
711.25	899.00
711.50	880.00
711.76	865.00
712.01	877.00
712.26	877.00
712.51	906.00
712.77	868.00
713.02	864.00
713.27	876.00
713.52	890.00
713.78	888.00
714.03	877.00
714.28	877.00
714.53	895.00
714.78	876.00
715.04	910.00
715.29	918.00
715.54	905.00
715.79	871.00
716.05	896.00
716.30	897.00
716.55	922.00
716.80	886.00
717.05	910.00
717.31	910.00
717.56	904.00
717.81	873.00
718.06	860.00
718.31	858.00
718.57	890.00
718.82	869.00
719.07	907.00
719.32	888.00
719.57	907.00
719.83	880.00
720.08	895.00
720.33	894.00
720.58	875.00
720.83	847.00
721.09	917.00
721.34	909.00
721.59	918.00
721.84	864.00
722.09	877.00
722.35	886.00
722.60	894.00
722.85	860.00
723.10	892.00
723.35	876.00
723.61	907.00
723.86	889.00
724.11	876.00
724.36	874.00
724.61	867.00
724.87	873.00
725.12	862.00
725.37	875.00
725.62	876.00
725.87	865.00
726.12	866.00
726.38	862.00
726.63	897.00
726.88	866.00
727.13	887.00
727.38	889.00
727.64	897.00
727.89	861.00
728.14	866.00
728.39	854.00
728.64	901.00
728.89	872.00
729.15	886.00
729.40	904.00
729.65	919.00
729.90	852.00
730.15	881.00
730.40	914.00
730.66	900.00
730.91	863.00
731.16	893.00
731.41	905.00
731.66	898.00
731.91	865.00
732.17	902.00
732.42	912.00
732.67	884.00
732.92	859.00
733.17	889.00
733.42	894.00
733.68	897.00
733.93	854.00
734.18	883.00
734.43	865.00
734.68	871.00
734.93	872.00
735.18	885.00
735.44	909.00
735.69	899.00
735.94	851.00
736.19	885.00
736.44	881.00
736.69	913.00
736.95	874.00
737.20	886.00
737.45	890.00
737.70	899.00
737.95	874.00
738.20	916.00
738.45	918.00
738.70	885.00
738.96	873.00
739.21	898.00
739.46	888.00
739.71	919.00
739.96	884.00
740.21	914.00
740.46	957.00
740.72	928.00
740.97	861.00
741.22	900.00
741.47	878.00
741.72	902.00
741.97	869.00
742.22	892.00
742.47	908.00
742.73	901.00
742.98	885.00
743.23	861.00
743.48	859.00
743.73	891.00
743.98	867.00
744.23	881.00
744.48	908.00
744.74	884.00
744.99	860.00
745.24	900.00
745.49	889.00
745.74	899.00
745.99	865.00
746.24	890.00
746.49	875.00
746.74	886.00
747.00	874.00
747.25	878.00
747.50	856.00
747.75	880.00
748.00	830.00
748.25	853.00
748.50	874.00
748.75	926.00
749.00	917.00
749.26	918.00
749.51	892.00
749.76	898.00
750.01	874.00
750.26	894.00
750.51	918.00
750.76	906.00
751.01	863.00
751.26	870.00
751.51	897.00
751.77	903.00
752.02	890.00
752.27	893.00
752.52	881.00
752.77	900.00
753.02	864.00
753.27	890.00
753.52	881.00
753.77	876.00
754.02	865.00
754.27	875.00
754.52	869.00
754.78	894.00
755.03	863.00
755.28	865.00
755.53	885.00
755.78	894.00
756.03	864.00
756.28	876.00
756.53	875.00
756.78	894.00
757.03	879.00
757.28	896.00
757.53	907.00
757.79	869.00
758.04	849.00
758.29	912.00
758.54	910.00
758.79	919.00
759.04	860.00
759.29	869.00
759.54	892.00
759.79	867.00
760.04	873.00
760.29	862.00
760.54	892.00
760.79	886.00
761.04	864.00
761.29	877.00
761.55	873.00
761.80	895.00
762.05	858.00
762.30	888.00
762.55	882.00
762.80	921.00
763.05	901.00
763.30	899.00
763.55	910.00
763.80	906.00
764.05	856.00
764.30	879.00
764.55	907.00
764.80	908.00
765.05	870.00
765.30	909.00
765.55	908.00
765.80	883.00
766.05	845.00
766.30	888.00
766.56	892.00
766.81	911.00
767.06	899.00
767.31	881.00
767.56	875.00
767.81	905.00
768.06	880.00
768.31	884.00
768.56	886.00
768.81	938.00
769.06	868.00
769.31	880.00
769.56	872.00
769.81	894.00
770.06	865.00
770.31	877.00
770.56	892.00
770.81	871.00
771.06	840.00
771.31	866.00
771.56	876.00
771.81	898.00
772.06	866.00
772.31	900.00
772.56	896.00
772.81	902.00
773.06	867.00
773.31	887.00
773.56	876.00
773.81	833.00
774.06	842.00
774.31	878.00
774.56	893.00
774.81	912.00
775.06	894.00
775.31	896.00
775.56	894.00
775.81	875.00
776.06	856.00
776.31	867.00
776.56	878.00
776.82	899.00
777.07	859.00
777.32	889.00
777.57	897.00
777.82	920.00
778.07	867.00
778.32	880.00
778.57	899.00
778.82	920.00
779.07	883.00
779.32	877.00
779.57	848.00
779.82	883.00
780.07	856.00
780.32	879.00
780.56	889.00
780.81	917.00
781.06	867.00
781.31	872.00
781.56	910.00
781.81	903.00
782.06	855.00
782.31	902.00
782.56	896.00
782.81	927.00
783.06	860.00
783.31	871.00
783.56	880.00
783.81	904.00
784.06	880.00
784.31	884.00
784.56	866.00
784.81	934.00
785.06	884.00
785.31	890.00
785.56	873.00
785.81	862.00
786.06	840.00
786.31	878.00
786.56	862.00
786.81	879.00
787.06	886.00
787.31	880.00
787.56	845.00
787.81	855.00
788.06	847.00
788.31	886.00
788.56	873.00
788.81	907.00
789.06	876.00
789.31	885.00
789.56	901.00
789.81	900.00
790.06	852.00
790.31	907.00
790.56	873.00
790.80	875.00
791.05	849.00
791.30	852.00
791.55	853.00
791.80	875.00
792.05	855.00
792.30	854.00
792.55	866.00
792.80	885.00
793.05	868.00
793.30	858.00
793.55	881.00
793.80	891.00
794.05	871.00
794.30	880.00
794.55	873.00
794.80	897.00
795.05	857.00
795.30	868.00
795.54	858.00
795.79	893.00
796.04	851.00
796.29	873.00
796.54	878.00
796.79	904.00
797.04	873.00
797.29	874.00
797.54	902.00
797.79	902.00
798.04	880.00
798.29	872.00
798.54	859.00
798.79	873.00
799.04	843.00
799.29	884.00
799.53	871.00
799.78	868.00
800.03	860.00
800.28	856.00
800.53	876.00
800.78	927.00
801.03	888.00
801.28	885.00
801.53	861.00
801.78	891.00
802.03	863.00
802.28	874.00
802.52	894.00
802.77	915.00
803.02	888.00
803.27	894.00
803.52	858.00
803.77	896.00
804.02	904.00
804.27	910.00
804.52	908.00
804.77	921.00
805.02	891.00
805.27	902.00
805.51	892.00
805.76	908.00
806.01	855.00
806.26	867.00
806.51	881.00
806.76	920.00
807.01	874.00
807.26	842.00
807.51	894.00
807.76	882.00
808.00	841.00
808.25	884.00
808.50	892.00
808.75	870.00
809.00	849.00
809.25	866.00
809.50	897.00
809.75	922.00
810.00	886.00
810.24	859.00
810.49	835.00
810.74	869.00
810.99	864.00
811.24	872.00
811.49	885.00
811.74	905.00
811.99	849.00
812.24	885.00
812.48	850.00
812.73	856.00
812.98	845.00
813.23	871.00
813.48	860.00
813.73	881.00
813.98	830.00
814.23	857.00
814.47	861.00
814.72	860.00
814.97	851.00
815.22	887.00
815.47	871.00
815.72	878.00
815.97	852.00
816.22	872.00
816.46	892.00
816.71	896.00
816.96	880.00
817.21	893.00
817.46	881.00
817.71	896.00
817.96	874.00
818.20	861.00
818.45	865.00
818.70	896.00
818.95	878.00
819.20	885.00
819.45	884.00
819.70	884.00
819.94	850.00
820.19	880.00
820.44	869.00
820.69	892.00
820.94	860.00
821.19	888.00
821.44	935.00
821.68	946.00
821.93	870.00
822.18	899.00
822.43	909.00
822.68	912.00
822.93	851.00
823.17	880.00
823.42	902.00
823.67	881.00
823.92	860.00
824.17	888.00
824.42	897.00
824.67	916.00
824.91	870.00
825.16	876.00
825.41	876.00
825.66	877.00
825.91	851.00
826.16	862.00
826.40	867.00
826.65	867.00
826.90	852.00
827.15	882.00
827.40	866.00
827.65	908.00
827.89	846.00
828.14	869.00
828.39	885.00
828.64	897.00
828.89	848.00
829.13	885.00
829.38	867.00
829.63	874.00
829.88	855.00
830.13	864.00
830.38	854.00
830.62	862.00
830.87	849.00
831.12	889.00
831.37	912.00
831.62	932.00
831.86	857.00
832.11	867.00
832.36	862.00
832.61	905.00
832.86	865.00
833.10	877.00
833.35	873.00
833.60	904.00
833.85	874.00
834.10	895.00
834.35	924.00
834.59	914.00
834.84	864.00
835.09	901.00
835.34	860.00
835.59	884.00
835.83	861.00
836.08	873.00
836.33	897.00
836.58	912.00
836.83	878.00
837.07	866.00
837.32	884.00
837.57	874.00
837.82	861.00
838.06	897.00
838.31	906.00
838.56	925.00
838.81	866.00
839.06	894.00
839.30	890.00
839.55	902.00
839.80	862.00
840.05	873.00
840.30	891.00
840.54	923.00
840.79	875.00
841.04	898.00
841.29	885.00
841.53	901.00
841.78	875.00
842.03	855.00
842.28	863.00
842.53	884.00
842.77	875.00
843.02	895.00
843.27	887.00
843.52	909.00
843.76	875.00
844.01	883.00
844.26	872.00
844.51	912.00
844.75	873.00
845.00	865.00
845.25	881.00
845.50	901.00
845.75	862.00
845.99	890.00
846.24	897.00
846.49	906.00
846.74	846.00
846.98	856.00
847.23	872.00
847.48	898.00
847.73	843.00
847.97	882.00
848.22	914.00
848.47	904.00
848.72	861.00
848.96	868.00
849.21	884.00
849.46	872.00
849.71	849.00
849.95	875.00
850.20	878.00
850.45	900.00
850.70	841.00
850.94	882.00
851.19	880.00
851.44	870.00
851.69	843.00
851.93	870.00
852.18	898.00
852.43	908.00
852.68	885.00
852.92	902.00
853.17	916.00
853.42	913.00
853.66	875.00
853.91	880.00
854.16	880.00
854.41	914.00
854.65	867.00
854.90	888.00
855.15	877.00
855.40	886.00
855.64	889.00
855.89	887.00
856.14	877.00
856.39	868.00
856.63	845.00
856.88	858.00
857.13	874.00
857.37	878.00
857.62	862.00
857.87	853.00
858.12	865.00
858.36	891.00
858.61	818.00
858.86	863.00
859.10	901.00
859.35	894.00
859.60	853.00
859.85	840.00
860.09	840.00
860.34	893.00
860.59	861.00
860.83	879.00
861.08	883.00
861.33	903.00
861.58	870.00
861.82	876.00
862.07	888.00
862.32	877.00
862.56	840.00
862.81	861.00
863.06	872.00
863.30	875.00
863.55	864.00
863.80	872.00
864.05	887.00
864.29	859.00
864.54	854.00
864.79	882.00
865.03	883.00
865.28	906.00
865.53	874.00
865.77	860.00
866.02	891.00
866.27	903.00
866.51	868.00
866.76	852.00
867.01	856.00
867.26	889.00
867.50	854.00
867.75	851.00
868.00	872.00
868.24	887.00
868.49	862.00
868.74	883.00
868.98	863.00
869.23	886.00
869.48	874.00
869.72	869.00
869.97	889.00
870.22	909.00
870.46	882.00
870.71	893.00
870.96	886.00
871.20	909.00
871.45	854.00
871.70	874.00
871.94	897.00
872.19	921.00
872.44	892.00
872.68	876.00
872.93	871.00
873.18	899.00
873.42	839.00
873.67	870.00
873.92	893.00
874.16	886.00
874.41	875.00
874.66	887.00
874.90	909.00
875.15	940.00
875.40	898.00
875.64	882.00
875.89	891.00
876.14	885.00
876.38	864.00
876.63	882.00
876.88	898.00
877.12	891.00
877.37	862.00
877.62	898.00
877.86	876.00
878.11	892.00
878.36	845.00
878.60	872.00
878.85	876.00
879.09	894.00
879.34	869.00
879.59	886.00
879.83	909.00
880.08	924.00
880.33	894.00
880.57	901.00
880.82	900.00
881.07	896.00
881.31	872.00
881.56	878.00
881.80	865.00
882.05	877.00
882.30	840.00
882.54	856.00
882.79	915.00
883.04	934.00
883.28	902.00
883.53	885.00
883.77	887.00
884.02	896.00
884.27	861.00
884.51	855.00
884.76	876.00
885.01	915.00
885.25	853.00
885.50	887.00
885.74	877.00
885.99	910.00
886.24	879.00
886.48	879.00
886.73	903.00
886.98	926.00
887.22	892.00
887.47	898.00
887.71	893.00
887.96	893.00
888.21	880.00
888.45	886.00
888.70	882.00
888.94	925.00
889.19	863.00
889.44	861.00
889.68	876.00
889.93	910.00
890.17	872.00
890.42	863.00
890.67	906.00
890.91	980.00
891.16	863.00
891.40	860.00
891.65	882.00
891.90	918.00
892.14	837.00
892.39	863.00
892.63	863.00
892.88	905.00
893.13	874.00
893.37	855.00
893.62	881.00
893.86	896.00
894.11	862.00
894.36	875.00
894.60	845.00
894.85	863.00
895.09	867.00
895.34	907.00
895.59	895.00
895.83	888.00
896.08	849.00
896.32	868.00
896.57	891.00
896.81	907.00
897.06	863.00
897.31	874.00
897.55	882.00
897.80	867.00
898.04	843.00
898.29	884.00
898.53	884.00
898.78	899.00
899.03	875.00
899.27	885.00
899.52	884.00
899.76	906.00
900.01	860.00
900.25	893.00
900.50	906.00
900.75	918.00
900.99	864.00
901.24	936.00
901.48	902.00
901.73	902.00
901.97	869.00
902.22	885.00
902.47	880.00
902.71	882.00
902.96	850.00
903.20	872.00
903.45	891.00
903.69	900.00
903.94	885.00
904.18	847.00
904.43	878.00
904.68	892.00
904.92	834.00
905.17	863.00
905.41	895.00
905.66	901.00
905.90	897.00
906.15	889.00
906.39	896.00
906.64	897.00
906.88	856.00
907.13	860.00
907.38	900.00
907.62	926.00
907.87	865.00
908.11	888.00
908.36	865.00
908.60	914.00
908.85	829.00
909.09	877.00
909.34	898.00
909.58	891.00
909.83	851.00
910.07	868.00
910.32	932.00
910.56	941.00
910.81	868.00
911.06	905.00
911.30	906.00
911.55	891.00
911.79	850.00
912.04	864.00
912.28	877.00
912.53	913.00
912.77	883.00
913.02	862.00
913.26	877.00
913.51	884.00
913.75	862.00
914.00	865.00
914.24	889.00
914.49	886.00
914.73	865.00
914.98	893.00
915.22	905.00
915.47	906.00
915.71	860.00
915.96	895.00
916.20	882.00
916.45	859.00
916.69	859.00
916.94	890.00
917.18	892.00
917.43	902.00
917.67	841.00
917.92	846.00
918.16	908.00
918.41	898.00
918.65	844.00
918.90	854.00
919.14	863.00
919.39	900.00
919.63	862.00
919.88	863.00
920.12	902.00
920.37	902.00
920.61	867.00
920.86	909.00
921.10	907.00
921.35	869.00
921.59	855.00
921.84	876.00
922.08	894.00
922.33	906.00
922.57	861.00
922.82	880.00
923.06	889.00
923.31	902.00
923.55	846.00
923.80	880.00
924.04	879.00
924.29	896.00
924.53	856.00
924.78	885.00
925.02	866.00
925.27	872.00
925.51	862.00
925.76	886.00
926.00	883.00
926.25	882.00
926.49	872.00
926.73	898.00
926.98	885.00
927.22	888.00
927.47	903.00
927.71	890.00
927.96	891.00
928.20	874.00
928.45	870.00
928.69	920.00
928.94	912.00
929.18	906.00
929.43	891.00
929.67	874.00
929.91	885.00
930.16	896.00
930.40	860.00
930.65	858.00
930.89	883.00
931.14	918.00
931.38	882.00
931.63	888.00
931.87	897.00
932.12	894.00
932.36	848.00
932.60	869.00
932.85	909.00
933.09	898.00
933.34	844.00
933.58	885.00
933.83	858.00
934.07	896.00
934.32	882.00
934.56	889.00
934.80	920.00
935.05	924.00
935.29	874.00
935.54	891.00
935.78	899.00
936.03	897.00
936.27	842.00
936.52	854.00
936.76	871.00
937.00	889.00
937.25	881.00
937.49	902.00
937.74	902.00
937.98	910.00
938.23	855.00
938.47	861.00
938.71	881.00
938.96	868.00
939.20	841.00
939.45	860.00
939.69	881.00
939.94	890.00
940.18	847.00
940.42	873.00
940.67	886.00
940.91	892.00
941.16	860.00
941.40	859.00
941.64	863.00
941.89	894.00
942.13	864.00
942.38	885.00
942.62	966.00
942.87	918.00
943.11	890.00
943.35	871.00
943.60	894.00
943.84	929.00
944.09	897.00
944.33	905.00
944.57	910.00
944.82	878.00
945.06	857.00
945.31	883.00
945.55	875.00
945.79	906.00
946.04	860.00
946.28	859.00
946.53	881.00
946.77	893.00
947.01	843.00
947.26	902.00
947.50	888.00
947.75	894.00
947.99	860.00
948.23	878.00
948.48	880.00
948.72	899.00
948.97	872.00
949.21	861.00
949.45	877.00
949.70	924.00
949.94	886.00
950.18	881.00
950.43	873.00
950.67	901.00
950.92	881.00
951.16	873.00
951.40	882.00
951.65	884.00
951.89	868.00
952.13	896.00
952.38	913.00
952.62	885.00
952.87	848.00
953.11	886.00
953.35	908.00
953.60	912.00
953.84	833.00
954.08	857.00
954.33	888.00
954.57	901.00
954.82	888.00
955.06	865.00
955.30	864.00
955.55	876.00
955.79	865.00
956.03	856.00
956.28	858.00
956.52	880.00
956.76	867.00
957.01	872.00
957.25	869.00
957.50	899.00
957.74	863.00
957.98	857.00
958.23	893.00
958.47	888.00
958.71	885.00
958.96	901.00
959.20	905.00
959.44	886.00
959.69	870.00
959.93	885.00
960.17	879.00
960.42	905.00
960.66	861.00
960.90	876.00
961.15	873.00
961.39	880.00
961.64	853.00
961.88	847.00
962.12	894.00
962.37	918.00
962.61	874.00
962.85	864.00
963.10	887.00
963.34	891.00
963.58	868.00
963.83	888.00
964.07	887.00
964.31	902.00
964.56	887.00
964.80	856.00
965.04	883.00
965.29	884.00
965.53	848.00
965.77	852.00
966.02	839.00
966.26	877.00
966.50	854.00
966.74	887.00
966.99	924.00
967.23	896.00
967.47	874.00
967.72	885.00
967.96	886.00
968.20	887.00
968.45	844.00
968.69	843.00
968.93	857.00
969.18	889.00
969.42	892.00
969.66	863.00
969.91	876.00
970.15	896.00
970.39	871.00
970.64	893.00
970.88	895.00
971.12	900.00
971.36	865.00
971.61	865.00
971.85	882.00
972.09	890.00
972.34	850.00
972.58	870.00
972.82	896.00
973.07	905.00
973.31	851.00
973.55	867.00
973.79	911.00
974.04	924.00
974.28	901.00
974.52	871.00
974.77	875.00
975.01	909.00
975.25	868.00
975.50	885.00
975.74	895.00
975.98	913.00
976.22	884.00
976.47	876.00
976.71	870.00
976.95	905.00
977.20	901.00
977.44	865.00
977.68	870.00
977.92	895.00
978.17	855.00
978.41	871.00
978.65	891.00
978.90	888.00
979.14	892.00
979.38	873.00
979.62	868.00
979.87	863.00
980.11	833.00
980.35	868.00
980.59	892.00
980.84	891.00
981.08	872.00
981.32	844.00
981.57	878.00
981.81	892.00
982.05	864.00
982.29	861.00
982.54	880.00
982.78	887.00
983.02	856.00
983.26	869.00
983.51	900.00
983.75	898.00
983.99	855.00
984.23	904.00
984.48	895.00
984.72	907.00
984.96	840.00
985.20	869.00
985.45	917.00
985.69	902.00
985.93	868.00
986.17	873.00
986.42	871.00
986.66	881.00
986.90	839.00
987.14	860.00
987.39	891.00
987.63	873.00
987.87	845.00
988.11	869.00
988.36	902.00
988.60	896.00
988.84	880.00
989.08	851.00
989.33	900.00
989.57	898.00
989.81	851.00
990.05	852.00
990.30	877.00
990.54	869.00
990.78	852.00
991.02	868.00
991.27	882.00
991.51	896.00
991.75	872.00
991.99	901.00
992.23	866.00
992.48	849.00
992.72	844.00
992.96	858.00
993.20	856.00
993.45	887.00
993.69	891.00
993.93	859.00
994.17	892.00
994.41	883.00
994.66	840.00
994.90	856.00
995.14	915.00
995.38	899.00
995.63	862.00
995.87	853.00
996.11	915.00
996.35	906.00
996.59	832.00
996.84	868.00
997.08	899.00
997.32	887.00
997.56	871.00
997.80	836.00
998.05	840.00
998.29	859.00
998.53	854.00
998.77	876.00
999.01	912.00
999.26	898.00
999.50	869.00
999.74	865.00
999.98	880.00
1000.22	893.00
1000.47	850.00
1000.71	855.00
1000.95	890.00
1001.19	886.00
1001.43	874.00
1001.68	877.00
1001.92	874.00
1002.16	885.00
1002.40	839.00
1002.64	873.00
1002.89	896.00
1003.13	889.00
1003.37	863.00
1003.61	852.00
1003.85	876.00
1004.10	866.00
1004.34	866.00
1004.58	875.00
1004.82	901.00
1005.06	878.00
1005.30	863.00
1005.55	852.00
1005.79	879.00
1006.03	891.00
1006.27	866.00
1006.51	855.00
1006.76	877.00
1007.00	880.00
1007.24	867.00
1007.48	873.00
1007.72	917.00
1007.96	889.00
1008.21	865.00
1008.45	877.00
1008.69	887.00
1008.93	903.00
1009.17	866.00
1009.41	885.00
1009.66	905.00
1009.90	875.00
1010.14	858.00
1010.38	876.00
1010.62	892.00
1010.86	902.00
1011.10	858.00
1011.35	863.00
1011.59	880.00
1011.83	858.00
1012.07	838.00
1012.31	886.00
1012.55	905.00
1012.80	916.00
1013.04	891.00
1013.28	908.00
1013.52	895.00
1013.76	910.00
1014.00	853.00
1014.24	874.00
1014.49	886.00
1014.73	917.00
1014.97	917.00
1015.21	884.00
1015.45	907.00
1015.69	866.00
1015.93	851.00
1016.18	875.00
1016.42	909.00
1016.66	904.00
1016.90	856.00
1017.14	852.00
1017.38	862.00
1017.62	880.00
1017.87	872.00
1018.11	863.00
1018.35	884.00
1018.59	881.00
1018.83	822.00
1019.07	876.00
1019.31	892.00
1019.55	907.00
1019.80	862.00
1020.04	872.00
1020.28	867.00
1020.52	904.00
1020.76	863.00
1021.00	861.00
1021.24	887.00
1021.48	879.00
1021.73	882.00
1021.97	890.00
1022.21	880.00
1022.45	884.00
1022.69	858.00
1022.93	876.00
1023.17	899.00
1023.41	923.00
1023.65	885.00
1023.90	918.00
1024.14	917.00
1024.38	872.00
1024.62	827.00
1024.86	858.00
1025.10	891.00
1025.34	893.00
1025.58	855.00
1025.82	859.00
1026.07	913.00
1026.31	900.00
1026.55	852.00
1026.79	854.00
1027.03	893.00
1027.27	911.00
1027.51	840.00
1027.75	828.00
1027.99	849.00
1028.23	913.00
1028.47	879.00
1028.72	856.00
1028.96	890.00
1029.20	902.00
1029.44	885.00
1029.68	882.00
1029.92	876.00
1030.16	902.00
1030.40	849.00
1030.64	860.00
1030.88	849.00
1031.12	863.00
1031.37	833.00
1031.61	877.00
1031.85	906.00
1032.09	912.00
1032.33	867.00
1032.57	914.00
1032.81	883.00
1033.05	903.00
1033.29	869.00
1033.53	859.00
1033.77	933.00
1034.01	927.00
1034.25	884.00
1034.50	890.00
1034.74	898.00
1034.98	914.00
1035.22	889.00
1035.46	872.00
1035.70	905.00
1035.94	901.00
1036.18	881.00
1036.42	865.00
1036.66	867.00
1036.90	892.00
1037.14	848.00
1037.38	855.00
1037.62	899.00
1037.86	893.00
1038.10	868.00
1038.35	871.00
1038.59	906.00
1038.83	913.00
1039.07	893.00
1039.31	902.00
1039.55	876.00
1039.79	896.00
1040.03	836.00
1040.27	849.00
1040.51	917.00
1040.75	927.00
1040.99	878.00
1041.23	897.00
1041.47	900.00
1041.71	924.00
1041.95	872.00
1042.19	872.00
1042.43	920.00
1042.67	932.00
1042.91	865.00
1043.15	866.00
1043.39	907.00
1043.64	892.00
1043.88	870.00
1044.12	881.00
1044.36	929.00
1044.60	930.00
1044.84	894.00
1045.08	890.00
1045.32	898.00
1045.56	907.00
1045.80	877.00
1046.04	867.00
1046.28	899.00
1046.52	886.00
1046.76	829.00
1047.00	845.00
1047.24	867.00
1047.48	871.00
1047.72	865.00
1047.96	882.00
1048.20	891.00
1048.44	887.00
1048.68	852.00
1048.92	872.00
1049.16	888.00
1049.40	909.00
1049.64	872.00
1049.88	890.00
1050.12	918.00
1050.36	929.00
1050.60	870.00
1050.84	881.00
1051.08	878.00
1051.32	871.00
1051.56	874.00
1051.80	868.00
1052.04	886.00
1052.28	909.00
1052.52	863.00
1052.76	839.00
1053.00	883.00
1053.24	898.00
1053.48	856.00
1053.72	858.00
1053.96	878.00
1054.20	894.00
1054.44	875.00
1054.68	874.00
1054.92	909.00
1055.16	870.00
1055.40	867.00
1055.64	885.00
1055.88	908.00
1056.12	931.00
1056.36	843.00
1056.60	861.00
1056.84	896.00
1057.08	894.00
1057.32	879.00
1057.56	869.00
1057.80	882.00
1058.04	902.00
1058.28	857.00
1058.52	876.00
1058.76	896.00
1059.00	908.00
1059.24	837.00
1059.48	835.00
1059.72	880.00
1059.96	877.00
1060.20	900.00
1060.44	910.00
1060.68	915.00
1060.92	910.00
1061.16	847.00
1061.40	868.00
1061.64	880.00
1061.88	890.00
1062.11	865.00
1062.35	848.00
1062.59	865.00
1062.83	898.00
1063.07	857.00
1063.31	847.00
1063.55	860.00
1063.79	900.00
1064.03	878.00
1064.27	860.00
1064.51	885.00
1064.75	891.00
1064.99	856.00
1065.23	886.00
1065.47	881.00
1065.71	898.00
1065.95	867.00
1066.19	879.00
1066.43	893.00
1066.67	888.00
1066.91	881.00
1067.15	862.00
1067.38	873.00
1067.62	876.00
1067.86	844.00
1068.10	865.00
1068.34	916.00
1068.58	923.00
1068.82	863.00
1069.06	832.00
1069.30	892.00
1069.54	916.00
1069.78	895.00
1070.02	883.00
1070.26	909.00
1070.50	921.00
1070.74	857.00
1070.98	894.00
1071.21	884.00
1071.45	883.00
1071.69	869.00
1071.93	872.00
1072.17	893.00
1072.41	908.00
1072.65	885.00
1072.89	898.00
1073.13	890.00
1073.37	879.00
1073.61	853.00
1073.85	891.00
1074.09	877.00
1074.32	849.00
1074.56	866.00
1074.80	952.00
1075.04	1156.00
1075.28	983.00
1075.52	870.00
1075.76	886.00
1076.00	909.00
1076.24	912.00
1076.48	881.00
1076.72	876.00
1076.96	900.00
1077.19	894.00
1077.43	862.00
1077.67	892.00
1077.91	896.00
1078.15	868.00
1078.39	884.00
1078.63	872.00
1078.87	887.00
1079.11	903.00
1079.35	863.00
1079.58	871.00
1079.82	885.00
1080.06	872.00
1080.30	846.00
1080.54	900.00
1080.78	905.00
1081.02	866.00
1081.26	855.00
1081.50	878.00
1081.74	902.00
1081.97	896.00
1082.21	866.00
1082.45	891.00
1082.69	887.00
1082.93	873.00
1083.17	859.00
1083.41	853.00
1083.65	912.00
1083.88	915.00
1084.12	872.00
1084.36	879.00
1084.60	904.00
1084.84	886.00
1085.08	844.00
1085.32	871.00
1085.56	903.00
1085.80	901.00
1086.03	873.00
1086.27	856.00
1086.51	872.00
1086.75	895.00
1086.99	861.00
1087.23	842.00
1087.47	881.00
1087.70	876.00
1087.94	857.00
1088.18	907.00
1088.42	942.00
1088.66	902.00
1088.90	842.00
1089.14	862.00
1089.38	886.00
1089.61	912.00
1089.85	883.00
1090.09	851.00
1090.33	913.00
1090.57	908.00
1090.81	826.00
1091.05	865.00
1091.28	909.00
1091.52	916.00
1091.76	861.00
1092.00	885.00
1092.24	898.00
1092.48	922.00
1092.71	855.00
1092.95	901.00
1093.19	900.00
1093.43	892.00
1093.67	845.00
1093.91	880.00
1094.15	889.00
1094.38	905.00
1094.62	854.00
1094.86	849.00
1095.10	868.00
1095.34	877.00
1095.58	858.00
1095.81	871.00
1096.05	907.00
1096.29	908.00
1096.53	850.00
1096.77	884.00
1097.01	883.00
1097.24	936.00
1097.48	868.00
1097.72	900.00
1097.96	890.00
1098.20	899.00
1098.44	848.00
1098.67	837.00
1098.91	894.00
1099.15	889.00
1099.39	856.00
1099.63	875.00
1099.86	888.00
1100.10	871.00
1100.34	872.00
1100.58	873.00
1100.82	898.00
1101.06	883.00
1101.29	848.00
1101.53	875.00
1101.77	894.00
1102.01	884.00
1102.25	873.00
1102.48	890.00
1102.72	935.00
1102.96	903.00
1103.20	845.00
1103.44	872.00
1103.67	879.00
1103.91	891.00
1104.15	842.00
1104.39	868.00
1104.63	883.00
1104.86	872.00
1105.10	854.00
1105.34	889.00
1105.58	878.00
1105.82	881.00
1106.05	861.00
1106.29	888.00
1106.53	894.00
1106.77	908.00
1107.01	856.00
1107.24	897.00
1107.48	937.00
1107.72	896.00
1107.96	828.00
1108.20	871.00
1108.43	892.00
1108.67	879.00
1108.91	856.00
1109.15	856.00
1109.39	893.00
1109.62	893.00
1109.86	828.00
1110.10	865.00
1110.34	935.00
1110.57	927.00
1110.81	867.00
1111.05	891.00
1111.29	921.00
1111.53	914.00
1111.76	868.00
1112.00	922.00
1112.24	919.00
1112.48	901.00
1112.71	850.00
1112.95	866.00
1113.19	909.00
1113.43	882.00
1113.66	839.00
1113.90	877.00
1114.14	885.00
1114.38	887.00
1114.62	845.00
1114.85	891.00
1115.09	890.00
1115.33	928.00
1115.57	863.00
1115.80	849.00
1116.04	886.00
1116.28	909.00
1116.52	863.00
1116.75	862.00
1116.99	897.00
1117.23	908.00
1117.47	870.00
1117.70	900.00
1117.94	952.00
1118.18	898.00
1118.42	871.00
1118.65	889.00
1118.89	924.00
1119.13	899.00
1119.37	862.00
1119.60	885.00
1119.84	897.00
>>>>>End Processed Spectral Data<<<<<
