SpectraSuite Data File
++++++++++++++++++++++++++++++++++++
Date: Fri Dec 06 15:56:16 CET 2024
User: student
Dark Spectrum Present: No
Reference Spectrum Present: No
Number of Sampled Component Spectra: 1
Spectrometers: HR4C155
Integration Time (usec): 100000 (HR4C155)
Spectra Averaged: 1 (HR4C155)
Boxcar Smoothing: 0 (HR4C155)
Correct for Electrical Dark: No (HR4C155)
Strobe/Lamp Enabled: No (HR4C155)
Correct for Detector Non-linearity: No (HR4C155)
Correct for Stray Light: No (HR4C155)
Number of Pixels in Processed Spectrum: 3648
>>>>>Begin Processed Spectral Data<<<<<
195.39	699.00
195.66	699.00
195.93	699.00
196.20	672.00
196.46	717.00
196.73	826.00
197.00	842.00
197.27	854.00
197.54	866.00
197.81	856.00
198.08	857.00
198.35	882.00
198.61	896.00
198.88	858.00
199.15	854.00
199.42	888.00
199.69	897.00
199.96	864.00
200.23	898.00
200.49	887.00
200.76	910.00
201.03	884.00
201.30	874.00
201.57	928.00
201.84	934.00
202.11	894.00
202.38	927.00
202.64	939.00
202.91	941.00
203.18	860.00
203.45	938.00
203.72	1014.00
203.99	933.00
204.25	916.00
204.52	928.00
204.79	940.00
205.06	948.00
205.33	870.00
205.60	893.00
205.87	946.00
206.13	964.00
206.40	936.00
206.67	903.00
206.94	932.00
207.21	923.00
207.48	903.00
207.75	915.00
208.01	941.00
208.28	924.00
208.55	892.00
208.82	910.00
209.09	915.00
209.36	949.00
209.62	909.00
209.89	933.00
210.16	952.00
210.43	985.00
210.70	904.00
210.97	916.00
211.23	956.00
211.50	959.00
211.77	907.00
212.04	908.00
212.31	918.00
212.58	954.00
212.84	912.00
213.11	901.00
213.38	881.00
213.65	922.00
213.92	903.00
214.18	911.00
214.45	947.00
214.72	950.00
214.99	893.00
215.26	918.00
215.53	912.00
215.79	934.00
216.06	931.00
216.33	911.00
216.60	889.00
216.87	941.00
217.13	867.00
217.40	895.00
217.67	922.00
217.94	958.00
218.21	891.00
218.48	943.00
218.74	1007.00
219.01	955.00
219.28	870.00
219.55	887.00
219.82	934.00
220.08	947.00
220.35	889.00
220.62	903.00
220.89	944.00
221.16	977.00
221.42	921.00
221.69	916.00
221.96	940.00
222.23	968.00
222.50	954.00
222.76	941.00
223.03	928.00
223.30	914.00
223.57	886.00
223.84	877.00
224.10	890.00
224.37	925.00
224.64	899.00
224.91	933.00
225.18	942.00
225.44	956.00
225.71	911.00
225.98	935.00
226.25	950.00
226.51	959.00
226.78	906.00
227.05	916.00
227.32	924.00
227.59	910.00
227.85	919.00
228.12	916.00
228.39	936.00
228.66	957.00
228.92	945.00
229.19	932.00
229.46	939.00
229.73	906.00
230.00	903.00
230.26	924.00
230.53	956.00
230.80	929.00
231.07	878.00
231.33	888.00
231.60	933.00
231.87	946.00
232.14	907.00
232.41	948.00
232.67	957.00
232.94	945.00
233.21	891.00
233.48	921.00
233.74	930.00
234.01	916.00
234.28	885.00
234.55	903.00
234.81	923.00
235.08	972.00
235.35	910.00
235.62	898.00
235.88	918.00
236.15	928.00
236.42	918.00
236.69	932.00
236.95	949.00
237.22	936.00
237.49	912.00
237.76	916.00
238.02	948.00
238.29	957.00
238.56	896.00
238.83	882.00
239.09	888.00
239.36	941.00
239.63	920.00
239.90	903.00
240.16	961.00
240.43	989.00
240.70	896.00
240.97	907.00
241.23	929.00
241.50	934.00
241.77	903.00
242.04	923.00
242.30	893.00
242.57	904.00
242.84	900.00
243.11	899.00
243.37	881.00
243.64	948.00
243.91	899.00
244.18	917.00
244.44	897.00
244.71	905.00
244.98	902.00
245.24	908.00
245.51	916.00
245.78	950.00
246.05	897.00
246.31	892.00
246.58	957.00
246.85	937.00
247.12	910.00
247.38	936.00
247.65	932.00
247.92	967.00
248.18	921.00
248.45	910.00
248.72	910.00
248.99	923.00
249.25	882.00
249.52	908.00
249.79	937.00
250.05	942.00
250.32	900.00
250.59	897.00
250.86	903.00
251.12	918.00
251.39	884.00
251.66	915.00
251.92	963.00
252.19	951.00
252.46	873.00
252.73	932.00
252.99	949.00
253.26	950.00
253.53	884.00
253.79	925.00
254.06	930.00
254.33	911.00
254.60	882.00
254.86	900.00
255.13	948.00
255.40	950.00
255.66	905.00
255.93	927.00
256.20	927.00
256.46	923.00
256.73	888.00
257.00	910.00
257.26	945.00
257.53	955.00
257.80	933.00
258.07	947.00
258.33	968.00
258.60	941.00
258.87	886.00
259.13	916.00
259.40	897.00
259.67	929.00
259.93	897.00
260.20	926.00
260.47	958.00
260.73	913.00
261.00	893.00
261.27	912.00
261.53	953.00
261.80	945.00
262.07	878.00
262.34	899.00
262.60	880.00
262.87	915.00
263.14	884.00
263.40	947.00
263.67	903.00
263.94	911.00
264.20	902.00
264.47	887.00
264.74	909.00
265.00	924.00
265.27	885.00
265.54	897.00
265.80	937.00
266.07	944.00
266.34	918.00
266.60	922.00
266.87	935.00
267.14	938.00
267.40	879.00
267.67	883.00
267.94	942.00
268.20	935.00
268.47	881.00
268.74	894.00
269.00	917.00
269.27	897.00
269.54	883.00
269.80	874.00
270.07	926.00
270.33	916.00
270.60	902.00
270.87	907.00
271.13	910.00
271.40	916.00
271.67	871.00
271.93	868.00
272.20	922.00
272.47	893.00
272.73	870.00
273.00	917.00
273.27	923.00
273.53	955.00
273.80	900.00
274.07	894.00
274.33	911.00
274.60	928.00
274.86	889.00
275.13	925.00
275.40	915.00
275.66	956.00
275.93	885.00
276.20	883.00
276.46	907.00
276.73	901.00
277.00	871.00
277.26	922.00
277.53	922.00
277.79	913.00
278.06	896.00
278.33	954.00
278.59	942.00
278.86	910.00
279.13	900.00
279.39	907.00
279.66	939.00
279.93	963.00
280.19	913.00
280.46	897.00
280.72	894.00
280.99	934.00
281.26	899.00
281.52	896.00
281.79	924.00
282.05	934.00
282.32	888.00
282.59	893.00
282.85	934.00
283.12	939.00
283.39	915.00
283.65	925.00
283.92	935.00
284.18	940.00
284.45	901.00
284.72	897.00
284.98	898.00
285.25	896.00
285.51	930.00
285.78	916.00
286.05	911.00
286.31	911.00
286.58	870.00
286.84	873.00
287.11	899.00
287.38	925.00
287.64	931.00
287.91	890.00
288.17	929.00
288.44	921.00
288.71	856.00
288.97	897.00
289.24	932.00
289.50	918.00
289.77	920.00
290.04	880.00
290.30	897.00
290.57	958.00
290.83	883.00
291.10	893.00
291.37	929.00
291.63	903.00
291.90	910.00
292.16	921.00
292.43	924.00
292.70	900.00
292.96	861.00
293.23	859.00
293.49	896.00
293.76	949.00
294.02	893.00
294.29	877.00
294.56	907.00
294.82	917.00
295.09	883.00
295.35	870.00
295.62	940.00
295.89	939.00
296.15	876.00
296.42	876.00
296.68	897.00
296.95	905.00
297.21	912.00
297.48	899.00
297.75	929.00
298.01	967.00
298.28	902.00
298.54	915.00
298.81	926.00
299.07	926.00
299.34	882.00
299.61	900.00
299.87	933.00
300.14	912.00
300.40	909.00
300.67	910.00
300.93	936.00
301.20	961.00
301.46	895.00
301.73	901.00
302.00	924.00
302.26	901.00
302.53	904.00
302.79	903.00
303.06	925.00
303.32	950.00
303.59	868.00
303.85	868.00
304.12	905.00
304.39	927.00
304.65	890.00
304.92	897.00
305.18	920.00
305.45	934.00
305.71	892.00
305.98	919.00
306.24	909.00
306.51	881.00
306.77	887.00
307.04	902.00
307.31	926.00
307.57	939.00
307.84	874.00
308.10	911.00
308.37	899.00
308.63	909.00
308.90	894.00
309.16	925.00
309.43	949.00
309.69	918.00
309.96	904.00
310.22	906.00
310.49	921.00
310.76	926.00
311.02	882.00
311.29	902.00
311.55	923.00
311.82	918.00
312.08	903.00
312.35	902.00
312.61	939.00
312.88	954.00
313.14	900.00
313.41	897.00
313.67	876.00
313.94	919.00
314.20	903.00
314.47	910.00
314.73	904.00
315.00	899.00
315.26	873.00
315.53	913.00
315.79	930.00
316.06	949.00
316.32	901.00
316.59	921.00
316.85	894.00
317.12	915.00
317.39	866.00
317.65	881.00
317.92	915.00
318.18	924.00
318.45	905.00
318.71	941.00
318.98	949.00
319.24	913.00
319.51	900.00
319.77	892.00
320.04	913.00
320.30	914.00
320.57	897.00
320.83	907.00
321.10	894.00
321.36	900.00
321.63	885.00
321.89	882.00
322.16	947.00
322.42	929.00
322.69	887.00
322.95	892.00
323.22	920.00
323.48	948.00
323.75	897.00
324.01	905.00
324.28	912.00
324.54	923.00
324.80	889.00
325.07	915.00
325.33	949.00
325.60	917.00
325.86	882.00
326.13	882.00
326.39	900.00
326.66	901.00
326.92	855.00
327.19	903.00
327.45	950.00
327.72	949.00
327.98	896.00
328.25	881.00
328.51	894.00
328.78	904.00
329.04	880.00
329.31	921.00
329.57	918.00
329.84	901.00
330.10	888.00
330.37	906.00
330.63	932.00
330.89	964.00
331.16	894.00
331.42	883.00
331.69	929.00
331.95	911.00
332.22	915.00
332.48	950.00
332.75	935.00
333.01	905.00
333.28	891.00
333.54	911.00
333.81	909.00
334.07	935.00
334.34	906.00
334.60	911.00
334.86	948.00
335.13	950.00
335.39	901.00
335.66	916.00
335.92	937.00
336.19	937.00
336.45	862.00
336.72	882.00
336.98	885.00
337.24	928.00
337.51	870.00
337.77	872.00
338.04	905.00
338.30	929.00
338.57	887.00
338.83	912.00
339.10	925.00
339.36	926.00
339.63	889.00
339.89	862.00
340.15	899.00
340.42	930.00
340.68	921.00
340.95	918.00
341.21	920.00
341.48	904.00
341.74	879.00
342.00	879.00
342.27	917.00
342.53	919.00
342.80	876.00
343.06	888.00
343.33	904.00
343.59	931.00
343.85	879.00
344.12	894.00
344.38	966.00
344.65	952.00
344.91	886.00
345.18	894.00
345.44	900.00
345.70	894.00
345.97	859.00
346.23	884.00
346.50	911.00
346.76	919.00
347.03	912.00
347.29	890.00
347.55	900.00
347.82	896.00
348.08	862.00
348.35	881.00
348.61	965.00
348.87	940.00
349.14	873.00
349.40	876.00
349.67	919.00
349.93	911.00
350.20	905.00
350.46	908.00
350.72	933.00
350.99	908.00
351.25	890.00
351.52	901.00
351.78	922.00
352.04	926.00
352.31	905.00
352.57	891.00
352.84	884.00
353.10	918.00
353.36	895.00
353.63	881.00
353.89	884.00
354.16	919.00
354.42	910.00
354.68	902.00
354.95	954.00
355.21	938.00
355.48	875.00
355.74	913.00
356.00	938.00
356.27	953.00
356.53	885.00
356.80	874.00
357.06	919.00
357.32	940.00
357.59	924.00
357.85	927.00
358.11	950.00
358.38	932.00
358.64	903.00
358.91	897.00
359.17	912.00
359.43	938.00
359.70	912.00
359.96	903.00
360.22	921.00
360.49	920.00
360.75	898.00
361.02	878.00
361.28	887.00
361.54	918.00
361.81	880.00
362.07	893.00
362.33	891.00
362.60	899.00
362.86	871.00
363.13	908.00
363.39	914.00
363.65	911.00
363.92	842.00
364.18	866.00
364.44	911.00
364.71	930.00
364.97	898.00
365.24	884.00
365.50	924.00
365.76	924.00
366.03	912.00
366.29	913.00
366.55	917.00
366.82	914.00
367.08	867.00
367.34	909.00
367.61	916.00
367.87	937.00
368.13	906.00
368.40	917.00
368.66	955.00
368.93	931.00
369.19	862.00
369.45	878.00
369.72	911.00
369.98	908.00
370.24	881.00
370.51	896.00
370.77	929.00
371.03	919.00
371.30	895.00
371.56	911.00
371.82	926.00
372.09	914.00
372.35	906.00
372.61	909.00
372.88	907.00
373.14	910.00
373.40	903.00
373.67	883.00
373.93	908.00
374.19	941.00
374.46	892.00
374.72	888.00
374.98	916.00
375.25	916.00
375.51	910.00
375.77	912.00
376.04	925.00
376.30	916.00
376.56	875.00
376.83	883.00
377.09	903.00
377.35	896.00
377.62	902.00
377.88	903.00
378.14	892.00
378.41	917.00
378.67	889.00
378.93	887.00
379.20	925.00
379.46	893.00
379.72	852.00
379.99	875.00
380.25	905.00
380.51	898.00
380.77	870.00
381.04	881.00
381.30	930.00
381.56	949.00
381.83	913.00
382.09	884.00
382.35	914.00
382.62	947.00
382.88	922.00
383.14	911.00
383.41	916.00
383.67	897.00
383.93	898.00
384.20	908.00
384.46	913.00
384.72	947.00
384.98	882.00
385.25	904.00
385.51	906.00
385.77	897.00
386.04	877.00
386.30	865.00
386.56	939.00
386.82	972.00
387.09	879.00
387.35	924.00
387.61	993.00
387.88	929.00
388.14	897.00
388.40	901.00
388.67	909.00
388.93	902.00
389.19	908.00
389.45	892.00
389.72	911.00
389.98	932.00
390.24	885.00
390.51	869.00
390.77	937.00
391.03	950.00
391.29	872.00
391.56	885.00
391.82	910.00
392.08	959.00
392.35	899.00
392.61	897.00
392.87	916.00
393.13	940.00
393.40	881.00
393.66	885.00
393.92	913.00
394.18	925.00
394.45	874.00
394.71	884.00
394.97	899.00
395.24	909.00
395.50	873.00
395.76	900.00
396.02	934.00
396.29	900.00
396.55	855.00
396.81	834.00
397.07	893.00
397.34	878.00
397.60	881.00
397.86	879.00
398.12	897.00
398.39	938.00
398.65	893.00
398.91	885.00
399.17	908.00
399.44	863.00
399.70	838.00
399.96	877.00
400.22	900.00
400.49	941.00
400.75	898.00
401.01	898.00
401.27	890.00
401.54	913.00
401.80	884.00
402.06	874.00
402.32	933.00
402.59	908.00
402.85	868.00
403.11	888.00
403.37	882.00
403.64	927.00
403.90	900.00
404.16	905.00
404.42	908.00
404.69	888.00
404.95	865.00
405.21	839.00
405.47	897.00
405.74	926.00
406.00	876.00
406.26	876.00
406.52	887.00
406.79	925.00
407.05	887.00
407.31	897.00
407.57	895.00
407.83	913.00
408.10	863.00
408.36	873.00
408.62	895.00
408.88	904.00
409.15	871.00
409.41	859.00
409.67	886.00
409.93	937.00
410.20	906.00
410.46	889.00
410.72	896.00
410.98	914.00
411.24	900.00
411.51	893.00
411.77	886.00
412.03	914.00
412.29	901.00
412.55	911.00
412.82	902.00
413.08	934.00
413.34	913.00
413.60	890.00
413.87	914.00
414.13	913.00
414.39	871.00
414.65	883.00
414.91	914.00
415.18	894.00
415.44	859.00
415.70	882.00
415.96	893.00
416.22	895.00
416.49	863.00
416.75	878.00
417.01	910.00
417.27	900.00
417.53	887.00
417.80	907.00
418.06	910.00
418.32	902.00
418.58	873.00
418.84	881.00
419.11	909.00
419.37	917.00
419.63	876.00
419.89	897.00
420.15	910.00
420.42	919.00
420.68	898.00
420.94	874.00
421.20	894.00
421.46	919.00
421.72	908.00
421.99	902.00
422.25	909.00
422.51	913.00
422.77	891.00
423.03	906.00
423.30	909.00
423.56	931.00
423.82	917.00
424.08	925.00
424.34	925.00
424.60	922.00
424.87	891.00
425.13	869.00
425.39	882.00
425.65	883.00
425.91	872.00
426.18	911.00
426.44	908.00
426.70	874.00
426.96	833.00
427.22	851.00
427.48	881.00
427.75	910.00
428.01	860.00
428.27	903.00
428.53	941.00
428.79	903.00
429.05	884.00
429.32	890.00
429.58	936.00
429.84	901.00
430.10	915.00
430.36	902.00
430.62	927.00
430.88	908.00
431.15	896.00
431.41	893.00
431.67	899.00
431.93	878.00
432.19	851.00
432.45	886.00
432.72	903.00
432.98	916.00
433.24	916.00
433.50	995.00
433.76	901.00
434.02	876.00
434.28	855.00
434.55	871.00
434.81	915.00
435.07	919.00
435.33	859.00
435.59	886.00
435.85	896.00
436.11	909.00
436.38	876.00
436.64	877.00
436.90	904.00
437.16	899.00
437.42	882.00
437.68	893.00
437.94	920.00
438.21	921.00
438.47	908.00
438.73	919.00
438.99	906.00
439.25	927.00
439.51	878.00
439.77	874.00
440.03	889.00
440.30	905.00
440.56	885.00
440.82	916.00
441.08	918.00
441.34	909.00
441.60	872.00
441.86	891.00
442.12	925.00
442.39	900.00
442.65	876.00
442.91	884.00
443.17	886.00
443.43	914.00
443.69	899.00
443.95	875.00
444.21	898.00
444.47	914.00
444.74	863.00
445.00	890.00
445.26	900.00
445.52	914.00
445.78	892.00
446.04	892.00
446.30	930.00
446.56	915.00
446.82	866.00
447.09	879.00
447.35	917.00
447.61	927.00
447.87	878.00
448.13	893.00
448.39	947.00
448.65	919.00
448.91	877.00
449.17	878.00
449.43	876.00
449.70	899.00
449.96	869.00
450.22	868.00
450.48	914.00
450.74	952.00
451.00	899.00
451.26	881.00
451.52	892.00
451.78	903.00
452.04	870.00
452.31	911.00
452.57	903.00
452.83	881.00
453.09	889.00
453.35	891.00
453.61	915.00
453.87	924.00
454.13	909.00
454.39	896.00
454.65	954.00
454.91	946.00
455.17	875.00
455.44	884.00
455.70	908.00
455.96	925.00
456.22	875.00
456.48	890.00
456.74	907.00
457.00	882.00
457.26	830.00
457.52	871.00
457.78	909.00
458.04	897.00
458.30	852.00
458.56	867.00
458.82	903.00
459.09	880.00
459.35	820.00
459.61	858.00
459.87	900.00
460.13	911.00
460.39	879.00
460.65	855.00
460.91	915.00
461.17	893.00
461.43	868.00
461.69	881.00
461.95	914.00
462.21	902.00
462.47	915.00
462.73	920.00
462.99	936.00
463.26	926.00
463.52	874.00
463.78	858.00
464.04	872.00
464.30	883.00
464.56	859.00
464.82	884.00
465.08	928.00
465.34	936.00
465.60	892.00
465.86	896.00
466.12	901.00
466.38	885.00
466.64	867.00
466.90	877.00
467.16	899.00
467.42	905.00
467.68	867.00
467.94	907.00
468.20	942.00
468.46	904.00
468.72	874.00
468.98	902.00
469.25	909.00
469.51	860.00
469.77	891.00
470.03	909.00
470.29	898.00
470.55	905.00
470.81	861.00
471.07	896.00
471.33	917.00
471.59	935.00
471.85	897.00
472.11	904.00
472.37	908.00
472.63	912.00
472.89	911.00
473.15	889.00
473.41	913.00
473.67	902.00
473.93	840.00
474.19	864.00
474.45	879.00
474.71	908.00
474.97	873.00
475.23	881.00
475.49	893.00
475.75	879.00
476.01	890.00
476.27	904.00
476.53	933.00
476.79	908.00
477.05	871.00
477.31	876.00
477.57	905.00
477.83	901.00
478.09	855.00
478.35	891.00
478.61	913.00
478.87	897.00
479.13	870.00
479.39	916.00
479.65	940.00
479.91	924.00
480.17	894.00
480.43	913.00
480.69	891.00
480.95	905.00
481.21	862.00
481.47	864.00
481.73	898.00
481.99	888.00
482.25	864.00
482.51	866.00
482.77	916.00
483.03	905.00
483.29	895.00
483.55	905.00
483.81	918.00
484.07	910.00
484.33	863.00
484.59	877.00
484.85	905.00
485.11	913.00
485.37	888.00
485.63	889.00
485.89	875.00
486.15	879.00
486.41	863.00
486.67	885.00
486.93	914.00
487.19	896.00
487.45	874.00
487.71	876.00
487.97	928.00
488.23	934.00
488.49	868.00
488.75	863.00
489.01	910.00
489.27	946.00
489.53	877.00
489.79	858.00
490.05	889.00
490.31	923.00
490.57	907.00
490.83	932.00
491.08	895.00
491.34	889.00
491.60	867.00
491.86	893.00
492.12	935.00
492.38	923.00
492.64	864.00
492.90	872.00
493.16	906.00
493.42	886.00
493.68	854.00
493.94	910.00
494.20	888.00
494.46	897.00
494.72	864.00
494.98	872.00
495.24	879.00
495.50	885.00
495.76	886.00
496.02	910.00
496.28	921.00
496.54	926.00
496.80	901.00
497.05	872.00
497.31	917.00
497.57	910.00
497.83	874.00
498.09	902.00
498.35	927.00
498.61	921.00
498.87	887.00
499.13	892.00
499.39	911.00
499.65	892.00
499.91	877.00
500.17	876.00
500.43	975.00
500.69	998.00
500.95	881.00
501.20	911.00
501.46	936.00
501.72	924.00
501.98	916.00
502.24	916.00
502.50	941.00
502.76	909.00
503.02	892.00
503.28	893.00
503.54	942.00
503.80	960.00
504.06	916.00
504.32	927.00
504.58	926.00
504.83	897.00
505.09	861.00
505.35	892.00
505.61	886.00
505.87	902.00
506.13	887.00
506.39	856.00
506.65	900.00
506.91	954.00
507.17	878.00
507.43	876.00
507.68	884.00
507.94	913.00
508.20	862.00
508.46	852.00
508.72	920.00
508.98	941.00
509.24	885.00
509.50	917.00
509.76	883.00
510.02	913.00
510.28	874.00
510.53	884.00
510.79	918.00
511.05	908.00
511.31	895.00
511.57	885.00
511.83	913.00
512.09	919.00
512.35	861.00
512.61	879.00
512.87	903.00
513.12	923.00
513.38	865.00
513.64	902.00
513.90	922.00
514.16	932.00
514.42	881.00
514.68	900.00
514.94	913.00
515.20	909.00
515.45	870.00
515.71	871.00
515.97	896.00
516.23	910.00
516.49	882.00
516.75	876.00
517.01	905.00
517.27	893.00
517.53	865.00
517.78	886.00
518.04	909.00
518.30	890.00
518.56	879.00
518.82	911.00
519.08	933.00
519.34	861.00
519.60	866.00
519.85	881.00
520.11	902.00
520.37	890.00
520.63	878.00
520.89	902.00
521.15	916.00
521.41	902.00
521.66	875.00
521.92	886.00
522.18	927.00
522.44	934.00
522.70	888.00
522.96	857.00
523.22	899.00
523.48	885.00
523.73	849.00
523.99	867.00
524.25	928.00
524.51	920.00
524.77	863.00
525.03	887.00
525.29	915.00
525.54	903.00
525.80	889.00
526.06	895.00
526.32	881.00
526.58	881.00
526.84	863.00
527.09	872.00
527.35	889.00
527.61	902.00
527.87	865.00
528.13	904.00
528.39	890.00
528.65	870.00
528.90	843.00
529.16	878.00
529.42	874.00
529.68	880.00
529.94	863.00
530.20	873.00
530.45	866.00
530.71	903.00
530.97	859.00
531.23	872.00
531.49	894.00
531.75	886.00
532.00	873.00
532.26	865.00
532.52	915.00
532.78	886.00
533.04	857.00
533.30	874.00
533.55	882.00
533.81	874.00
534.07	842.00
534.33	870.00
534.59	921.00
534.85	909.00
535.10	866.00
535.36	865.00
535.62	889.00
535.88	898.00
536.14	836.00
536.39	855.00
536.65	930.00
536.91	941.00
537.17	877.00
537.43	886.00
537.69	928.00
537.94	893.00
538.20	848.00
538.46	881.00
538.72	914.00
538.98	919.00
539.23	874.00
539.49	852.00
539.75	909.00
540.01	909.00
540.27	877.00
540.52	907.00
540.78	913.00
541.04	923.00
541.30	879.00
541.56	873.00
541.81	940.00
542.07	979.00
542.33	881.00
542.59	886.00
542.85	899.00
543.10	904.00
543.36	859.00
543.62	872.00
543.88	899.00
544.14	898.00
544.39	858.00
544.65	872.00
544.91	919.00
545.17	881.00
545.43	864.00
545.68	868.00
545.94	902.00
546.20	915.00
546.46	889.00
546.71	865.00
546.97	889.00
547.23	900.00
547.49	871.00
547.75	867.00
548.00	918.00
548.26	923.00
548.52	868.00
548.78	863.00
549.03	884.00
549.29	890.00
549.55	827.00
549.81	869.00
550.07	890.00
550.32	917.00
550.58	849.00
550.84	886.00
551.10	881.00
551.35	888.00
551.61	876.00
551.87	892.00
552.13	915.00
552.39	886.00
552.64	827.00
552.90	866.00
553.16	904.00
553.42	892.00
553.67	857.00
553.93	861.00
554.19	924.00
554.45	944.00
554.70	892.00
554.96	856.00
555.22	898.00
555.48	911.00
555.73	865.00
555.99	876.00
556.25	917.00
556.51	910.00
556.76	868.00
557.02	898.00
557.28	924.00
557.54	901.00
557.79	869.00
558.05	902.00
558.31	884.00
558.57	913.00
558.82	871.00
559.08	837.00
559.34	860.00
559.60	889.00
559.85	877.00
560.11	873.00
560.37	889.00
560.63	881.00
560.88	848.00
561.14	865.00
561.40	920.00
561.66	880.00
561.91	870.00
562.17	905.00
562.43	916.00
562.68	912.00
562.94	886.00
563.20	901.00
563.46	915.00
563.71	922.00
563.97	864.00
564.23	887.00
564.49	910.00
564.74	919.00
565.00	881.00
565.26	899.00
565.51	902.00
565.77	884.00
566.03	845.00
566.29	880.00
566.54	879.00
566.80	900.00
567.06	886.00
567.31	909.00
567.57	920.00
567.83	878.00
568.09	884.00
568.34	884.00
568.60	885.00
568.86	920.00
569.11	895.00
569.37	869.00
569.63	890.00
569.89	903.00
570.14	849.00
570.40	851.00
570.66	876.00
570.91	886.00
571.17	875.00
571.43	901.00
571.69	927.00
571.94	938.00
572.20	860.00
572.46	876.00
572.71	917.00
572.97	897.00
573.23	845.00
573.48	854.00
573.74	875.00
574.00	915.00
574.26	878.00
574.51	875.00
574.77	934.00
575.03	903.00
575.28	863.00
575.54	860.00
575.80	869.00
576.05	894.00
576.31	855.00
576.57	870.00
576.82	916.00
577.08	890.00
577.34	854.00
577.59	870.00
577.85	923.00
578.11	887.00
578.37	859.00
578.62	867.00
578.88	899.00
579.14	921.00
579.39	882.00
579.65	884.00
579.91	889.00
580.16	896.00
580.42	870.00
580.68	867.00
580.93	914.00
581.19	902.00
581.45	860.00
581.70	874.00
581.96	901.00
582.22	919.00
582.47	897.00
582.73	892.00
582.99	911.00
583.24	898.00
583.50	847.00
583.76	851.00
584.01	884.00
584.27	930.00
584.53	917.00
584.78	915.00
585.04	889.00
585.30	921.00
585.55	887.00
585.81	878.00
586.07	934.00
586.32	929.00
586.58	888.00
586.83	886.00
587.09	926.00
587.35	915.00
587.60	866.00
587.86	865.00
588.12	884.00
588.37	901.00
588.63	869.00
588.89	893.00
589.14	925.00
589.40	922.00
589.66	880.00
589.91	888.00
590.17	912.00
590.43	865.00
590.68	852.00
590.94	886.00
591.19	913.00
591.45	913.00
591.71	872.00
591.96	885.00
592.22	913.00
592.48	907.00
592.73	850.00
592.99	860.00
593.25	906.00
593.50	912.00
593.76	874.00
594.01	892.00
594.27	900.00
594.53	906.00
594.78	885.00
595.04	879.00
595.30	878.00
595.55	900.00
595.81	841.00
596.06	895.00
596.32	942.00
596.58	925.00
596.83	889.00
597.09	924.00
597.35	914.00
597.60	886.00
597.86	863.00
598.11	888.00
598.37	923.00
598.63	913.00
598.88	867.00
599.14	872.00
599.39	928.00
599.65	902.00
599.91	841.00
600.16	853.00
600.42	901.00
600.67	933.00
600.93	875.00
601.19	897.00
601.44	933.00
601.70	911.00
601.95	868.00
602.21	899.00
602.47	892.00
602.72	903.00
602.98	874.00
603.23	902.00
603.49	930.00
603.75	927.00
604.00	896.00
604.26	900.00
604.51	894.00
604.77	937.00
605.03	878.00
605.28	883.00
605.54	935.00
605.79	945.00
606.05	874.00
606.31	871.00
606.56	899.00
606.82	938.00
607.07	883.00
607.33	906.00
607.59	941.00
607.84	925.00
608.10	877.00
608.35	885.00
608.61	917.00
608.86	937.00
609.12	910.00
609.38	945.00
609.63	966.00
609.89	939.00
610.14	874.00
610.40	898.00
610.65	918.00
610.91	932.00
611.17	892.00
611.42	913.00
611.68	942.00
611.93	973.00
612.19	938.00
612.44	937.00
612.70	945.00
612.96	915.00
613.21	895.00
613.47	910.00
613.72	937.00
613.98	955.00
614.23	924.00
614.49	945.00
614.75	959.00
615.00	927.00
615.26	921.00
615.51	913.00
615.77	972.00
616.02	975.00
616.28	946.00
616.53	951.00
616.79	960.00
617.05	952.00
617.30	938.00
617.56	954.00
617.81	986.00
618.07	1002.00
618.32	954.00
618.58	1008.00
618.83	1009.00
619.09	1000.00
619.34	955.00
619.60	970.00
619.86	1026.00
620.11	1049.00
620.37	1018.00
620.62	1014.00
620.88	1049.00
621.13	1033.00
621.39	1026.00
621.64	1039.00
621.90	1064.00
622.15	1042.00
622.41	1045.00
622.66	1065.00
622.92	1093.00
623.18	1103.00
623.43	1042.00
623.69	1075.00
623.94	1127.00
624.20	1124.00
624.45	1079.00
624.71	1101.00
624.96	1120.00
625.22	1172.00
625.47	1127.00
625.73	1160.00
625.98	1183.00
626.24	1179.00
626.49	1149.00
626.75	1204.00
627.00	1240.00
627.26	1228.00
627.51	1234.00
627.77	1255.00
628.02	1252.00
628.28	1272.00
628.53	1233.00
628.79	1255.00
629.05	1311.00
629.30	1316.00
629.56	1309.00
629.81	1322.00
630.07	1354.00
630.32	1413.00
630.58	1401.00
630.83	1386.00
631.09	1406.00
631.34	1466.00
631.60	1487.00
631.85	1498.00
632.11	1482.00
632.36	1475.00
632.62	1471.00
632.87	1509.00
633.13	1538.00
633.38	1502.00
633.64	1524.00
633.89	1560.00
634.15	1544.00
634.40	1545.00
634.66	1526.00
634.91	1617.00
635.17	1715.00
635.42	1772.00
635.68	1722.00
635.93	1660.00
636.18	1654.00
636.44	1630.00
636.69	1603.00
636.95	1639.00
637.20	1726.00
637.46	1725.00
637.71	1713.00
637.97	1692.00
638.22	1658.00
638.48	1622.00
638.73	1577.00
638.99	1534.00
639.24	1521.00
639.50	1520.00
639.75	1450.00
640.01	1486.00
640.26	1506.00
640.52	1486.00
640.77	1449.00
641.03	1433.00
641.28	1430.00
641.54	1380.00
641.79	1299.00
642.04	1316.00
642.30	1297.00
642.55	1291.00
642.81	1260.00
643.06	1285.00
643.32	1327.00
643.57	1338.00
643.83	1255.00
644.08	1182.00
644.34	1181.00
644.59	1203.00
644.85	1129.00
645.10	1146.00
645.35	1139.00
645.61	1124.00
645.86	1070.00
646.12	1083.00
646.37	1118.00
646.63	1083.00
646.88	1007.00
647.14	1037.00
647.39	1058.00
647.65	1061.00
647.90	1002.00
648.15	1014.00
648.41	1034.00
648.66	1062.00
648.92	980.00
649.17	994.00
649.43	988.00
649.68	971.00
649.94	951.00
650.19	950.00
650.44	984.00
650.70	987.00
650.95	926.00
651.21	953.00
651.46	982.00
651.72	953.00
651.97	928.00
652.23	923.00
652.48	945.00
652.73	945.00
652.99	923.00
653.24	929.00
653.50	941.00
653.75	937.00
654.01	930.00
654.26	937.00
654.51	925.00
654.77	935.00
655.02	915.00
655.28	896.00
655.53	900.00
655.79	924.00
656.04	915.00
656.29	922.00
656.55	924.00
656.80	944.00
657.06	878.00
657.31	866.00
657.56	892.00
657.82	910.00
658.07	896.00
658.33	899.00
658.58	910.00
658.84	932.00
659.09	898.00
659.34	892.00
659.60	896.00
659.85	896.00
660.11	882.00
660.36	886.00
660.61	898.00
660.87	870.00
661.12	845.00
661.38	887.00
661.63	896.00
661.88	906.00
662.14	896.00
662.39	887.00
662.65	922.00
662.90	933.00
663.15	867.00
663.41	883.00
663.66	927.00
663.92	947.00
664.17	884.00
664.42	911.00
664.68	923.00
664.93	897.00
665.19	848.00
665.44	868.00
665.69	885.00
665.95	897.00
666.20	861.00
666.45	900.00
666.71	902.00
666.96	911.00
667.22	869.00
667.47	880.00
667.72	871.00
667.98	892.00
668.23	869.00
668.49	899.00
668.74	924.00
668.99	899.00
669.25	855.00
669.50	859.00
669.75	900.00
670.01	887.00
670.26	840.00
670.52	872.00
670.77	921.00
671.02	900.00
671.28	861.00
671.53	882.00
671.78	906.00
672.04	926.00
672.29	891.00
672.54	861.00
672.80	899.00
673.05	903.00
673.31	864.00
673.56	901.00
673.81	950.00
674.07	926.00
674.32	889.00
674.57	893.00
674.83	878.00
675.08	905.00
675.33	884.00
675.59	893.00
675.84	907.00
676.09	880.00
676.35	876.00
676.60	869.00
676.86	894.00
677.11	926.00
677.36	877.00
677.62	878.00
677.87	921.00
678.12	926.00
678.38	860.00
678.63	877.00
678.88	919.00
679.14	919.00
679.39	853.00
679.64	882.00
679.90	873.00
680.15	896.00
680.40	896.00
680.66	887.00
680.91	908.00
681.16	910.00
681.42	875.00
681.67	880.00
681.92	893.00
682.18	943.00
682.43	871.00
682.68	867.00
682.94	884.00
683.19	881.00
683.44	868.00
683.70	894.00
683.95	900.00
684.20	885.00
684.46	885.00
684.71	897.00
684.96	890.00
685.22	920.00
685.47	889.00
685.72	913.00
685.98	919.00
686.23	874.00
686.48	846.00
686.74	897.00
686.99	936.00
687.24	906.00
687.50	870.00
687.75	873.00
688.00	883.00
688.25	915.00
688.51	877.00
688.76	894.00
689.01	891.00
689.27	891.00
689.52	839.00
689.77	877.00
690.03	866.00
690.28	858.00
690.53	866.00
690.79	890.00
691.04	898.00
691.29	896.00
691.54	840.00
691.80	883.00
692.05	901.00
692.30	898.00
692.56	875.00
692.81	907.00
693.06	882.00
693.32	865.00
693.57	863.00
693.82	894.00
694.07	918.00
694.33	904.00
694.58	857.00
694.83	882.00
695.09	865.00
695.34	918.00
695.59	883.00
695.84	875.00
696.10	899.00
696.35	904.00
696.60	858.00
696.86	869.00
697.11	888.00
697.36	918.00
697.61	862.00
697.87	893.00
698.12	874.00
698.37	882.00
698.63	881.00
698.88	871.00
699.13	890.00
699.38	900.00
699.64	861.00
699.89	856.00
700.14	869.00
700.39	878.00
700.65	871.00
700.90	909.00
701.15	904.00
701.40	894.00
701.66	863.00
701.91	878.00
702.16	890.00
702.42	894.00
702.67	853.00
702.92	864.00
703.17	885.00
703.43	901.00
703.68	881.00
703.93	898.00
704.18	925.00
704.44	903.00
704.69	878.00
704.94	898.00
705.19	883.00
705.45	909.00
705.70	909.00
705.95	860.00
706.20	878.00
706.46	908.00
706.71	864.00
706.96	879.00
707.21	882.00
707.47	897.00
707.72	889.00
707.97	891.00
708.22	916.00
708.48	926.00
708.73	855.00
708.98	868.00
709.23	877.00
709.49	880.00
709.74	858.00
709.99	866.00
710.24	880.00
710.50	879.00
710.75	894.00
711.00	906.00
711.25	916.00
711.50	895.00
711.76	858.00
712.01	868.00
712.26	860.00
712.51	905.00
712.77	866.00
713.02	869.00
713.27	873.00
713.52	897.00
713.78	881.00
714.03	883.00
714.28	882.00
714.53	920.00
714.78	886.00
715.04	883.00
715.29	894.00
715.54	899.00
715.79	856.00
716.05	888.00
716.30	913.00
716.55	915.00
716.80	889.00
717.05	881.00
717.31	909.00
717.56	904.00
717.81	860.00
718.06	870.00
718.31	862.00
718.57	902.00
718.82	870.00
719.07	915.00
719.32	891.00
719.57	909.00
719.83	867.00
720.08	876.00
720.33	883.00
720.58	868.00
720.83	836.00
721.09	922.00
721.34	915.00
721.59	909.00
721.84	857.00
722.09	879.00
722.35	895.00
722.60	883.00
722.85	853.00
723.10	875.00
723.35	877.00
723.61	903.00
723.86	899.00
724.11	889.00
724.36	890.00
724.61	880.00
724.87	880.00
725.12	874.00
725.37	899.00
725.62	864.00
725.87	854.00
726.12	845.00
726.38	861.00
726.63	892.00
726.88	864.00
727.13	892.00
727.38	878.00
727.64	887.00
727.89	847.00
728.14	867.00
728.39	877.00
728.64	891.00
728.89	881.00
729.15	897.00
729.40	903.00
729.65	896.00
729.90	860.00
730.15	865.00
730.40	888.00
730.66	892.00
730.91	877.00
731.16	892.00
731.41	897.00
731.66	885.00
731.91	877.00
732.17	912.00
732.42	909.00
732.67	887.00
732.92	851.00
733.17	889.00
733.42	894.00
733.68	897.00
733.93	861.00
734.18	883.00
734.43	859.00
734.68	873.00
734.93	857.00
735.18	894.00
735.44	888.00
735.69	896.00
735.94	832.00
736.19	867.00
736.44	883.00
736.69	932.00
736.95	883.00
737.20	903.00
737.45	906.00
737.70	912.00
737.95	888.00
738.20	901.00
738.45	900.00
738.70	890.00
738.96	890.00
739.21	910.00
739.46	891.00
739.71	904.00
739.96	876.00
740.21	912.00
740.46	972.00
740.72	916.00
740.97	870.00
741.22	901.00
741.47	869.00
741.72	899.00
741.97	854.00
742.22	877.00
742.47	902.00
742.73	896.00
742.98	858.00
743.23	868.00
743.48	867.00
743.73	898.00
743.98	874.00
744.23	890.00
744.48	906.00
744.74	881.00
744.99	859.00
745.24	899.00
745.49	888.00
745.74	912.00
745.99	866.00
746.24	881.00
746.49	861.00
746.74	883.00
747.00	890.00
747.25	887.00
747.50	860.00
747.75	872.00
748.00	840.00
748.25	866.00
748.50	874.00
748.75	919.00
749.00	907.00
749.26	920.00
749.51	896.00
749.76	910.00
750.01	860.00
750.26	871.00
750.51	928.00
750.76	930.00
751.01	866.00
751.26	877.00
751.51	905.00
751.77	923.00
752.02	881.00
752.27	881.00
752.52	874.00
752.77	896.00
753.02	871.00
753.27	876.00
753.52	885.00
753.77	879.00
754.02	866.00
754.27	879.00
754.52	878.00
754.78	897.00
755.03	879.00
755.28	906.00
755.53	903.00
755.78	881.00
756.03	860.00
756.28	883.00
756.53	879.00
756.78	899.00
757.03	883.00
757.28	898.00
757.53	889.00
757.79	857.00
758.04	846.00
758.29	902.00
758.54	904.00
758.79	903.00
759.04	851.00
759.29	855.00
759.54	881.00
759.79	892.00
760.04	874.00
760.29	878.00
760.54	883.00
760.79	879.00
761.04	848.00
761.29	861.00
761.55	857.00
761.80	886.00
762.05	856.00
762.30	876.00
762.55	896.00
762.80	906.00
763.05	882.00
763.30	900.00
763.55	914.00
763.80	892.00
764.05	857.00
764.30	881.00
764.55	902.00
764.80	896.00
765.05	868.00
765.30	901.00
765.55	879.00
765.80	887.00
766.05	861.00
766.30	874.00
766.56	875.00
766.81	883.00
767.06	871.00
767.31	868.00
767.56	867.00
767.81	888.00
768.06	855.00
768.31	886.00
768.56	889.00
768.81	940.00
769.06	872.00
769.31	886.00
769.56	884.00
769.81	908.00
770.06	854.00
770.31	866.00
770.56	904.00
770.81	879.00
771.06	834.00
771.31	878.00
771.56	878.00
771.81	903.00
772.06	863.00
772.31	894.00
772.56	884.00
772.81	901.00
773.06	870.00
773.31	898.00
773.56	899.00
773.81	864.00
774.06	852.00
774.31	881.00
774.56	893.00
774.81	916.00
775.06	878.00
775.31	907.00
775.56	897.00
775.81	874.00
776.06	840.00
776.31	868.00
776.56	879.00
776.82	885.00
777.07	848.00
777.32	874.00
777.57	876.00
777.82	914.00
778.07	865.00
778.32	866.00
778.57	891.00
778.82	914.00
779.07	880.00
779.32	879.00
779.57	856.00
779.82	876.00
780.07	860.00
780.32	894.00
780.56	891.00
780.81	917.00
781.06	852.00
781.31	868.00
781.56	913.00
781.81	912.00
782.06	859.00
782.31	889.00
782.56	873.00
782.81	906.00
783.06	864.00
783.31	890.00
783.56	883.00
783.81	905.00
784.06	883.00
784.31	877.00
784.56	855.00
784.81	906.00
785.06	879.00
785.31	887.00
785.56	861.00
785.81	864.00
786.06	843.00
786.31	885.00
786.56	881.00
786.81	886.00
787.06	883.00
787.31	868.00
787.56	859.00
787.81	869.00
788.06	836.00
788.31	879.00
788.56	863.00
788.81	877.00
789.06	853.00
789.31	890.00
789.56	883.00
789.81	874.00
790.06	840.00
790.31	912.00
790.56	883.00
790.80	885.00
791.05	848.00
791.30	849.00
791.55	867.00
791.80	892.00
792.05	861.00
792.30	882.00
792.55	887.00
792.80	885.00
793.05	855.00
793.30	878.00
793.55	887.00
793.80	904.00
794.05	854.00
794.30	860.00
794.55	876.00
794.80	899.00
795.05	854.00
795.30	886.00
795.54	873.00
795.79	889.00
796.04	863.00
796.29	880.00
796.54	867.00
796.79	901.00
797.04	876.00
797.29	892.00
797.54	895.00
797.79	893.00
798.04	878.00
798.29	870.00
798.54	854.00
798.79	875.00
799.04	842.00
799.29	886.00
799.53	886.00
799.78	882.00
800.03	861.00
800.28	863.00
800.53	861.00
800.78	919.00
801.03	862.00
801.28	864.00
801.53	872.00
801.78	902.00
802.03	866.00
802.28	888.00
802.52	904.00
802.77	909.00
803.02	875.00
803.27	892.00
803.52	860.00
803.77	881.00
804.02	886.00
804.27	905.00
804.52	887.00
804.77	921.00
805.02	880.00
805.27	883.00
805.51	869.00
805.76	916.00
806.01	865.00
806.26	859.00
806.51	865.00
806.76	922.00
807.01	896.00
807.26	872.00
807.51	906.00
807.76	875.00
808.00	836.00
808.25	871.00
808.50	902.00
808.75	885.00
809.00	850.00
809.25	875.00
809.50	878.00
809.75	912.00
810.00	873.00
810.24	862.00
810.49	845.00
810.74	876.00
810.99	873.00
811.24	876.00
811.49	890.00
811.74	912.00
811.99	838.00
812.24	874.00
812.48	872.00
812.73	872.00
812.98	839.00
813.23	856.00
813.48	880.00
813.73	877.00
813.98	837.00
814.23	857.00
814.47	863.00
814.72	868.00
814.97	842.00
815.22	898.00
815.47	878.00
815.72	897.00
815.97	855.00
816.22	859.00
816.46	878.00
816.71	894.00
816.96	862.00
817.21	890.00
817.46	873.00
817.71	893.00
817.96	860.00
818.20	870.00
818.45	844.00
818.70	874.00
818.95	854.00
819.20	870.00
819.45	876.00
819.70	889.00
819.94	859.00
820.19	881.00
820.44	856.00
820.69	888.00
820.94	866.00
821.19	875.00
821.44	928.00
821.68	948.00
821.93	870.00
822.18	904.00
822.43	910.00
822.68	900.00
822.93	859.00
823.17	876.00
823.42	894.00
823.67	880.00
823.92	841.00
824.17	865.00
824.42	889.00
824.67	904.00
824.91	869.00
825.16	875.00
825.41	881.00
825.66	892.00
825.91	854.00
826.16	883.00
826.40	876.00
826.65	889.00
826.90	853.00
827.15	874.00
827.40	888.00
827.65	919.00
827.89	825.00
828.14	868.00
828.39	897.00
828.64	885.00
828.89	857.00
829.13	870.00
829.38	870.00
829.63	894.00
829.88	859.00
830.13	857.00
830.38	859.00
830.62	882.00
830.87	854.00
831.12	874.00
831.37	910.00
831.62	907.00
831.86	861.00
832.11	877.00
832.36	865.00
832.61	900.00
832.86	858.00
833.10	890.00
833.35	876.00
833.60	899.00
833.85	868.00
834.10	890.00
834.35	901.00
834.59	913.00
834.84	868.00
835.09	880.00
835.34	836.00
835.59	876.00
835.83	868.00
836.08	889.00
836.33	875.00
836.58	902.00
836.83	863.00
837.07	886.00
837.32	893.00
837.57	886.00
837.82	867.00
838.06	881.00
838.31	898.00
838.56	923.00
838.81	861.00
839.06	885.00
839.30	881.00
839.55	911.00
839.80	873.00
840.05	904.00
840.30	920.00
840.54	930.00
840.79	852.00
841.04	880.00
841.29	887.00
841.53	901.00
841.78	872.00
842.03	857.00
842.28	850.00
842.53	866.00
842.77	855.00
843.02	866.00
843.27	866.00
843.52	888.00
843.76	873.00
844.01	893.00
844.26	881.00
844.51	905.00
844.75	869.00
845.00	858.00
845.25	892.00
845.50	905.00
845.75	862.00
845.99	897.00
846.24	883.00
846.49	895.00
846.74	856.00
846.98	847.00
847.23	859.00
847.48	896.00
847.73	843.00
847.97	876.00
848.22	905.00
848.47	902.00
848.72	871.00
848.96	872.00
849.21	887.00
849.46	869.00
849.71	845.00
849.95	877.00
850.20	880.00
850.45	882.00
850.70	845.00
850.94	892.00
851.19	880.00
851.44	880.00
851.69	845.00
851.93	880.00
852.18	900.00
852.43	892.00
852.68	879.00
852.92	899.00
853.17	913.00
853.42	921.00
853.66	895.00
853.91	906.00
854.16	873.00
854.41	918.00
854.65	871.00
854.90	874.00
855.15	872.00
855.40	888.00
855.64	874.00
855.89	879.00
856.14	879.00
856.39	897.00
856.63	865.00
856.88	866.00
857.13	864.00
857.37	881.00
857.62	844.00
857.87	857.00
858.12	878.00
858.36	904.00
858.61	839.00
858.86	884.00
859.10	896.00
859.35	892.00
859.60	850.00
859.85	835.00
860.09	842.00
860.34	885.00
860.59	880.00
860.83	895.00
861.08	893.00
861.33	917.00
861.58	856.00
861.82	871.00
862.07	882.00
862.32	901.00
862.56	852.00
862.81	880.00
863.06	874.00
863.30	882.00
863.55	869.00
863.80	882.00
864.05	884.00
864.29	881.00
864.54	885.00
864.79	883.00
865.03	895.00
865.28	914.00
865.53	876.00
865.77	869.00
866.02	908.00
866.27	896.00
866.51	866.00
866.76	852.00
867.01	867.00
867.26	895.00
867.50	875.00
867.75	852.00
868.00	888.00
868.24	925.00
868.49	870.00
868.74	879.00
868.98	876.00
869.23	888.00
869.48	866.00
869.72	860.00
869.97	885.00
870.22	904.00
870.46	856.00
870.71	875.00
870.96	878.00
871.20	890.00
871.45	846.00
871.70	879.00
871.94	907.00
872.19	899.00
872.44	884.00
872.68	867.00
872.93	877.00
873.18	900.00
873.42	864.00
873.67	889.00
873.92	905.00
874.16	876.00
874.41	879.00
874.66	888.00
874.90	890.00
875.15	915.00
875.40	886.00
875.64	881.00
875.89	878.00
876.14	889.00
876.38	857.00
876.63	856.00
876.88	885.00
877.12	888.00
877.37	851.00
877.62	891.00
877.86	873.00
878.11	887.00
878.36	837.00
878.60	887.00
878.85	883.00
879.09	881.00
879.34	871.00
879.59	886.00
879.83	899.00
880.08	936.00
880.33	901.00
880.57	901.00
880.82	899.00
881.07	898.00
881.31	880.00
881.56	879.00
881.80	876.00
882.05	888.00
882.30	847.00
882.54	870.00
882.79	905.00
883.04	926.00
883.28	899.00
883.53	884.00
883.77	897.00
884.02	894.00
884.27	856.00
884.51	857.00
884.76	875.00
885.01	901.00
885.25	860.00
885.50	879.00
885.74	875.00
885.99	913.00
886.24	868.00
886.48	867.00
886.73	894.00
886.98	914.00
887.22	881.00
887.47	878.00
887.71	897.00
887.96	887.00
888.21	875.00
888.45	865.00
888.70	872.00
888.94	913.00
889.19	846.00
889.44	859.00
889.68	889.00
889.93	922.00
890.17	869.00
890.42	873.00
890.67	906.00
890.91	956.00
891.16	860.00
891.40	849.00
891.65	868.00
891.90	914.00
892.14	852.00
892.39	873.00
892.63	886.00
892.88	927.00
893.13	884.00
893.37	868.00
893.62	863.00
893.86	895.00
894.11	857.00
894.36	885.00
894.60	888.00
894.85	879.00
895.09	864.00
895.34	898.00
895.59	884.00
895.83	878.00
896.08	857.00
896.32	848.00
896.57	865.00
896.81	900.00
897.06	857.00
897.31	892.00
897.55	900.00
897.80	885.00
898.04	840.00
898.29	849.00
898.53	890.00
898.78	906.00
899.03	884.00
899.27	868.00
899.52	889.00
899.76	917.00
900.01	869.00
900.25	890.00
900.50	896.00
900.75	900.00
900.99	881.00
901.24	954.00
901.48	891.00
901.73	881.00
901.97	855.00
902.22	877.00
902.47	897.00
902.71	876.00
902.96	841.00
903.20	868.00
903.45	896.00
903.69	888.00
903.94	883.00
904.18	842.00
904.43	854.00
904.68	876.00
904.92	841.00
905.17	878.00
905.41	899.00
905.66	903.00
905.90	890.00
906.15	890.00
906.39	893.00
906.64	885.00
906.88	851.00
907.13	861.00
907.38	899.00
907.62	918.00
907.87	854.00
908.11	881.00
908.36	860.00
908.60	881.00
908.85	830.00
909.09	860.00
909.34	866.00
909.58	884.00
909.83	854.00
910.07	862.00
910.32	911.00
910.56	918.00
910.81	852.00
911.06	903.00
911.30	905.00
911.55	883.00
911.79	862.00
912.04	888.00
912.28	872.00
912.53	900.00
912.77	897.00
913.02	880.00
913.26	873.00
913.51	881.00
913.75	864.00
914.00	881.00
914.24	889.00
914.49	901.00
914.73	864.00
914.98	882.00
915.22	904.00
915.47	884.00
915.71	862.00
915.96	876.00
916.20	872.00
916.45	861.00
916.69	832.00
916.94	872.00
917.18	884.00
917.43	897.00
917.67	856.00
917.92	849.00
918.16	906.00
918.41	910.00
918.65	858.00
918.90	862.00
919.14	863.00
919.39	879.00
919.63	865.00
919.88	866.00
920.12	887.00
920.37	892.00
920.61	868.00
920.86	892.00
921.10	900.00
921.35	876.00
921.59	860.00
921.84	897.00
922.08	904.00
922.33	914.00
922.57	849.00
922.82	853.00
923.06	872.00
923.31	901.00
923.55	846.00
923.80	865.00
924.04	871.00
924.29	909.00
924.53	852.00
924.78	866.00
925.02	869.00
925.27	893.00
925.51	880.00
925.76	897.00
926.00	880.00
926.25	873.00
926.49	856.00
926.73	899.00
926.98	894.00
927.22	909.00
927.47	865.00
927.71	874.00
927.96	906.00
928.20	902.00
928.45	888.00
928.69	928.00
928.94	901.00
929.18	896.00
929.43	880.00
929.67	889.00
929.91	889.00
930.16	902.00
930.40	838.00
930.65	837.00
930.89	875.00
931.14	908.00
931.38	880.00
931.63	895.00
931.87	891.00
932.12	900.00
932.36	845.00
932.60	845.00
932.85	885.00
933.09	877.00
933.34	838.00
933.58	898.00
933.83	896.00
934.07	894.00
934.32	873.00
934.56	895.00
934.80	941.00
935.05	934.00
935.29	870.00
935.54	879.00
935.78	890.00
936.03	892.00
936.27	838.00
936.52	875.00
936.76	872.00
937.00	888.00
937.25	877.00
937.49	878.00
937.74	904.00
937.98	889.00
938.23	840.00
938.47	848.00
938.71	868.00
938.96	865.00
939.20	842.00
939.45	866.00
939.69	885.00
939.94	915.00
940.18	852.00
940.42	858.00
940.67	891.00
940.91	867.00
941.16	842.00
941.40	852.00
941.64	891.00
941.89	888.00
942.13	848.00
942.38	868.00
942.62	949.00
942.87	932.00
943.11	885.00
943.35	852.00
943.60	897.00
943.84	913.00
944.09	872.00
944.33	909.00
944.57	908.00
944.82	899.00
945.06	873.00
945.31	880.00
945.55	879.00
945.79	901.00
946.04	850.00
946.28	858.00
946.53	875.00
946.77	872.00
947.01	830.00
947.26	883.00
947.50	890.00
947.75	905.00
947.99	869.00
948.23	866.00
948.48	885.00
948.72	885.00
948.97	869.00
949.21	887.00
949.45	883.00
949.70	918.00
949.94	868.00
950.18	880.00
950.43	889.00
950.67	887.00
950.92	848.00
951.16	858.00
951.40	875.00
951.65	882.00
951.89	865.00
952.13	882.00
952.38	884.00
952.62	884.00
952.87	849.00
953.11	884.00
953.35	902.00
953.60	896.00
953.84	828.00
954.08	851.00
954.33	886.00
954.57	893.00
954.82	864.00
955.06	866.00
955.30	875.00
955.55	878.00
955.79	868.00
956.03	867.00
956.28	862.00
956.52	871.00
956.76	879.00
957.01	908.00
957.25	883.00
957.50	908.00
957.74	868.00
957.98	871.00
958.23	904.00
958.47	907.00
958.71	880.00
958.96	890.00
959.20	922.00
959.44	894.00
959.69	861.00
959.93	888.00
960.17	882.00
960.42	901.00
960.66	884.00
960.90	898.00
961.15	890.00
961.39	883.00
961.64	851.00
961.88	848.00
962.12	898.00
962.37	904.00
962.61	878.00
962.85	865.00
963.10	886.00
963.34	899.00
963.58	867.00
963.83	885.00
964.07	885.00
964.31	880.00
964.56	874.00
964.80	867.00
965.04	874.00
965.29	886.00
965.53	856.00
965.77	870.00
966.02	849.00
966.26	859.00
966.50	846.00
966.74	880.00
966.99	901.00
967.23	892.00
967.47	858.00
967.72	887.00
967.96	890.00
968.20	878.00
968.45	839.00
968.69	859.00
968.93	868.00
969.18	892.00
969.42	896.00
969.66	880.00
969.91	879.00
970.15	891.00
970.39	845.00
970.64	870.00
970.88	889.00
971.12	897.00
971.36	858.00
971.61	866.00
971.85	884.00
972.09	880.00
972.34	844.00
972.58	870.00
972.82	895.00
973.07	918.00
973.31	838.00
973.55	856.00
973.79	901.00
974.04	923.00
974.28	897.00
974.52	874.00
974.77	875.00
975.01	917.00
975.25	871.00
975.50	882.00
975.74	898.00
975.98	902.00
976.22	877.00
976.47	871.00
976.71	897.00
976.95	899.00
977.20	876.00
977.44	872.00
977.68	869.00
977.92	886.00
978.17	852.00
978.41	862.00
978.65	885.00
978.90	883.00
979.14	880.00
979.38	880.00
979.62	888.00
979.87	882.00
980.11	842.00
980.35	861.00
980.59	891.00
980.84	905.00
981.08	853.00
981.32	852.00
981.57	872.00
981.81	889.00
982.05	878.00
982.29	857.00
982.54	868.00
982.78	882.00
983.02	852.00
983.26	887.00
983.51	926.00
983.75	923.00
983.99	866.00
984.23	897.00
984.48	892.00
984.72	912.00
984.96	857.00
985.20	864.00
985.45	936.00
985.69	909.00
985.93	870.00
986.17	895.00
986.42	893.00
986.66	889.00
986.90	846.00
987.14	868.00
987.39	890.00
987.63	881.00
987.87	833.00
988.11	850.00
988.36	908.00
988.60	915.00
988.84	894.00
989.08	846.00
989.33	888.00
989.57	890.00
989.81	840.00
990.05	857.00
990.30	865.00
990.54	861.00
990.78	857.00
991.02	849.00
991.27	876.00
991.51	898.00
991.75	846.00
991.99	891.00
992.23	871.00
992.48	865.00
992.72	837.00
992.96	848.00
993.20	851.00
993.45	896.00
993.69	892.00
993.93	858.00
994.17	885.00
994.41	892.00
994.66	852.00
994.90	867.00
995.14	896.00
995.38	891.00
995.63	868.00
995.87	856.00
996.11	927.00
996.35	899.00
996.59	854.00
996.84	863.00
997.08	877.00
997.32	868.00
997.56	871.00
997.80	857.00
998.05	855.00
998.29	855.00
998.53	858.00
998.77	856.00
999.01	883.00
999.26	892.00
999.50	873.00
999.74	851.00
999.98	882.00
1000.22	889.00
1000.47	851.00
1000.71	868.00
1000.95	899.00
1001.19	896.00
1001.43	854.00
1001.68	871.00
1001.92	865.00
1002.16	875.00
1002.40	848.00
1002.64	880.00
1002.89	896.00
1003.13	896.00
1003.37	876.00
1003.61	844.00
1003.85	892.00
1004.10	888.00
1004.34	877.00
1004.58	867.00
1004.82	904.00
1005.06	912.00
1005.30	872.00
1005.55	852.00
1005.79	897.00
1006.03	877.00
1006.27	857.00
1006.51	872.00
1006.76	904.00
1007.00	904.00
1007.24	874.00
1007.48	887.00
1007.72	898.00
1007.96	881.00
1008.21	868.00
1008.45	880.00
1008.69	888.00
1008.93	893.00
1009.17	866.00
1009.41	888.00
1009.66	906.00
1009.90	885.00
1010.14	849.00
1010.38	880.00
1010.62	882.00
1010.86	907.00
1011.10	869.00
1011.35	859.00
1011.59	871.00
1011.83	862.00
1012.07	835.00
1012.31	875.00
1012.55	880.00
1012.80	897.00
1013.04	894.00
1013.28	889.00
1013.52	876.00
1013.76	889.00
1014.00	863.00
1014.24	862.00
1014.49	880.00
1014.73	901.00
1014.97	880.00
1015.21	878.00
1015.45	921.00
1015.69	888.00
1015.93	862.00
1016.18	883.00
1016.42	906.00
1016.66	900.00
1016.90	860.00
1017.14	863.00
1017.38	891.00
1017.62	885.00
1017.87	874.00
1018.11	874.00
1018.35	888.00
1018.59	895.00
1018.83	849.00
1019.07	874.00
1019.31	890.00
1019.55	896.00
1019.80	866.00
1020.04	872.00
1020.28	889.00
1020.52	899.00
1020.76	852.00
1021.00	834.00
1021.24	862.00
1021.48	866.00
1021.73	863.00
1021.97	875.00
1022.21	881.00
1022.45	896.00
1022.69	880.00
1022.93	859.00
1023.17	895.00
1023.41	922.00
1023.65	869.00
1023.90	910.00
1024.14	904.00
1024.38	874.00
1024.62	846.00
1024.86	878.00
1025.10	887.00
1025.34	871.00
1025.58	836.00
1025.82	858.00
1026.07	914.00
1026.31	898.00
1026.55	862.00
1026.79	860.00
1027.03	886.00
1027.27	873.00
1027.51	833.00
1027.75	832.00
1027.99	851.00
1028.23	918.00
1028.47	894.00
1028.72	877.00
1028.96	893.00
1029.20	901.00
1029.44	885.00
1029.68	883.00
1029.92	896.00
1030.16	895.00
1030.40	828.00
1030.64	845.00
1030.88	869.00
1031.12	856.00
1031.37	842.00
1031.61	876.00
1031.85	902.00
1032.09	892.00
1032.33	865.00
1032.57	905.00
1032.81	889.00
1033.05	905.00
1033.29	872.00
1033.53	867.00
1033.77	921.00
1034.01	915.00
1034.25	877.00
1034.50	883.00
1034.74	892.00
1034.98	907.00
1035.22	878.00
1035.46	872.00
1035.70	907.00
1035.94	905.00
1036.18	878.00
1036.42	873.00
1036.66	870.00
1036.90	884.00
1037.14	856.00
1037.38	853.00
1037.62	876.00
1037.86	873.00
1038.10	848.00
1038.35	853.00
1038.59	893.00
1038.83	896.00
1039.07	867.00
1039.31	898.00
1039.55	855.00
1039.79	887.00
1040.03	850.00
1040.27	835.00
1040.51	885.00
1040.75	920.00
1040.99	874.00
1041.23	876.00
1041.47	890.00
1041.71	916.00
1041.95	876.00
1042.19	856.00
1042.43	907.00
1042.67	912.00
1042.91	860.00
1043.15	852.00
1043.39	914.00
1043.64	897.00
1043.88	874.00
1044.12	895.00
1044.36	941.00
1044.60	916.00
1044.84	873.00
1045.08	880.00
1045.32	888.00
1045.56	887.00
1045.80	868.00
1046.04	876.00
1046.28	928.00
1046.52	899.00
1046.76	838.00
1047.00	867.00
1047.24	896.00
1047.48	884.00
1047.72	864.00
1047.96	877.00
1048.20	892.00
1048.44	896.00
1048.68	859.00
1048.92	885.00
1049.16	901.00
1049.40	898.00
1049.64	872.00
1049.88	889.00
1050.12	900.00
1050.36	897.00
1050.60	858.00
1050.84	869.00
1051.08	873.00
1051.32	873.00
1051.56	856.00
1051.80	854.00
1052.04	882.00
1052.28	912.00
1052.52	861.00
1052.76	853.00
1053.00	870.00
1053.24	882.00
1053.48	870.00
1053.72	876.00
1053.96	869.00
1054.20	893.00
1054.44	888.00
1054.68	897.00
1054.92	901.00
1055.16	860.00
1055.40	863.00
1055.64	896.00
1055.88	920.00
1056.12	909.00
1056.36	844.00
1056.60	864.00
1056.84	914.00
1057.08	889.00
1057.32	854.00
1057.56	853.00
1057.80	866.00
1058.04	912.00
1058.28	857.00
1058.52	874.00
1058.76	922.00
1059.00	901.00
1059.24	845.00
1059.48	855.00
1059.72	888.00
1059.96	891.00
1060.20	892.00
1060.44	897.00
1060.68	913.00
1060.92	890.00
1061.16	839.00
1061.40	862.00
1061.64	884.00
1061.88	878.00
1062.11	862.00
1062.35	870.00
1062.59	871.00
1062.83	908.00
1063.07	860.00
1063.31	830.00
1063.55	865.00
1063.79	893.00
1064.03	857.00
1064.27	858.00
1064.51	897.00
1064.75	906.00
1064.99	884.00
1065.23	880.00
1065.47	880.00
1065.71	904.00
1065.95	878.00
1066.19	878.00
1066.43	902.00
1066.67	887.00
1066.91	895.00
1067.15	893.00
1067.38	892.00
1067.62	911.00
1067.86	865.00
1068.10	881.00
1068.34	928.00
1068.58	927.00
1068.82	868.00
1069.06	838.00
1069.30	870.00
1069.54	900.00
1069.78	882.00
1070.02	866.00
1070.26	908.00
1070.50	923.00
1070.74	874.00
1070.98	898.00
1071.21	902.00
1071.45	902.00
1071.69	873.00
1071.93	879.00
1072.17	890.00
1072.41	890.00
1072.65	891.00
1072.89	894.00
1073.13	887.00
1073.37	876.00
1073.61	840.00
1073.85	883.00
1074.09	863.00
1074.32	881.00
1074.56	863.00
1074.80	930.00
1075.04	1132.00
1075.28	982.00
1075.52	882.00
1075.76	889.00
1076.00	916.00
1076.24	916.00
1076.48	890.00
1076.72	892.00
1076.96	918.00
1077.19	901.00
1077.43	866.00
1077.67	882.00
1077.91	889.00
1078.15	871.00
1078.39	883.00
1078.63	876.00
1078.87	888.00
1079.11	881.00
1079.35	853.00
1079.58	846.00
1079.82	871.00
1080.06	872.00
1080.30	850.00
1080.54	885.00
1080.78	903.00
1081.02	873.00
1081.26	869.00
1081.50	893.00
1081.74	900.00
1081.97	911.00
1082.21	862.00
1082.45	882.00
1082.69	880.00
1082.93	875.00
1083.17	870.00
1083.41	877.00
1083.65	926.00
1083.88	919.00
1084.12	879.00
1084.36	878.00
1084.60	903.00
1084.84	893.00
1085.08	850.00
1085.32	881.00
1085.56	916.00
1085.80	901.00
1086.03	863.00
1086.27	851.00
1086.51	865.00
1086.75	901.00
1086.99	890.00
1087.23	861.00
1087.47	885.00
1087.70	880.00
1087.94	868.00
1088.18	899.00
1088.42	943.00
1088.66	906.00
1088.90	851.00
1089.14	884.00
1089.38	892.00
1089.61	896.00
1089.85	873.00
1090.09	843.00
1090.33	903.00
1090.57	913.00
1090.81	843.00
1091.05	874.00
1091.28	905.00
1091.52	904.00
1091.76	874.00
1092.00	892.00
1092.24	892.00
1092.48	916.00
1092.71	846.00
1092.95	889.00
1093.19	890.00
1093.43	883.00
1093.67	865.00
1093.91	893.00
1094.15	889.00
1094.38	894.00
1094.62	860.00
1094.86	854.00
1095.10	872.00
1095.34	880.00
1095.58	859.00
1095.81	865.00
1096.05	920.00
1096.29	924.00
1096.53	847.00
1096.77	876.00
1097.01	880.00
1097.24	919.00
1097.48	849.00
1097.72	886.00
1097.96	890.00
1098.20	899.00
1098.44	860.00
1098.67	840.00
1098.91	897.00
1099.15	904.00
1099.39	848.00
1099.63	866.00
1099.86	889.00
1100.10	864.00
1100.34	884.00
1100.58	869.00
1100.82	878.00
1101.06	869.00
1101.29	831.00
1101.53	868.00
1101.77	906.00
1102.01	877.00
1102.25	854.00
1102.48	883.00
1102.72	932.00
1102.96	896.00
1103.20	840.00
1103.44	864.00
1103.67	892.00
1103.91	913.00
1104.15	857.00
1104.39	867.00
1104.63	889.00
1104.86	878.00
1105.10	877.00
1105.34	899.00
1105.58	882.00
1105.82	884.00
1106.05	868.00
1106.29	885.00
1106.53	892.00
1106.77	927.00
1107.01	862.00
1107.24	887.00
1107.48	932.00
1107.72	908.00
1107.96	833.00
1108.20	861.00
1108.43	873.00
1108.67	870.00
1108.91	872.00
1109.15	866.00
1109.39	869.00
1109.62	884.00
1109.86	856.00
1110.10	850.00
1110.34	916.00
1110.57	929.00
1110.81	869.00
1111.05	888.00
1111.29	916.00
1111.53	908.00
1111.76	868.00
1112.00	920.00
1112.24	919.00
1112.48	886.00
1112.71	865.00
1112.95	879.00
1113.19	914.00
1113.43	910.00
1113.66	861.00
1113.90	885.00
1114.14	879.00
1114.38	906.00
1114.62	861.00
1114.85	884.00
1115.09	884.00
1115.33	919.00
1115.57	883.00
1115.80	865.00
1116.04	876.00
1116.28	884.00
1116.52	867.00
1116.75	876.00
1116.99	918.00
1117.23	897.00
1117.47	881.00
1117.70	905.00
1117.94	947.00
1118.18	891.00
1118.42	876.00
1118.65	899.00
1118.89	906.00
1119.13	893.00
1119.37	860.00
1119.60	890.00
1119.84	897.00
>>>>>End Processed Spectral Data<<<<<
