SpectraSuite Data File
++++++++++++++++++++++++++++++++++++
Date: Fri Dec 06 15:53:46 CET 2024
User: student
Dark Spectrum Present: No
Reference Spectrum Present: No
Number of Sampled Component Spectra: 1
Spectrometers: HR4C155
Integration Time (usec): 100000 (HR4C155)
Spectra Averaged: 1 (HR4C155)
Boxcar Smoothing: 0 (HR4C155)
Correct for Electrical Dark: No (HR4C155)
Strobe/Lamp Enabled: No (HR4C155)
Correct for Detector Non-linearity: No (HR4C155)
Correct for Stray Light: No (HR4C155)
Number of Pixels in Processed Spectrum: 3648
>>>>>Begin Processed Spectral Data<<<<<
195.39	731.00
195.66	731.00
195.93	731.00
196.20	675.00
196.46	716.00
196.73	840.00
197.00	848.00
197.27	843.00
197.54	842.00
197.81	845.00
198.08	857.00
198.35	898.00
198.61	925.00
198.88	889.00
199.15	853.00
199.42	868.00
199.69	893.00
199.96	870.00
200.23	887.00
200.49	882.00
200.76	901.00
201.03	895.00
201.30	882.00
201.57	932.00
201.84	951.00
202.11	897.00
202.38	920.00
202.64	936.00
202.91	954.00
203.18	874.00
203.45	927.00
203.72	1012.00
203.99	929.00
204.25	936.00
204.52	921.00
204.79	940.00
205.06	937.00
205.33	885.00
205.60	896.00
205.87	936.00
206.13	954.00
206.40	917.00
206.67	904.00
206.94	932.00
207.21	928.00
207.48	915.00
207.75	905.00
208.01	956.00
208.28	941.00
208.55	887.00
208.82	915.00
209.09	918.00
209.36	941.00
209.62	914.00
209.89	942.00
210.16	946.00
210.43	973.00
210.70	902.00
210.97	914.00
211.23	926.00
211.50	947.00
211.77	895.00
212.04	910.00
212.31	920.00
212.58	956.00
212.84	917.00
213.11	902.00
213.38	882.00
213.65	914.00
213.92	905.00
214.18	914.00
214.45	958.00
214.72	945.00
214.99	899.00
215.26	922.00
215.53	909.00
215.79	951.00
216.06	945.00
216.33	924.00
216.60	906.00
216.87	947.00
217.13	873.00
217.40	885.00
217.67	933.00
217.94	966.00
218.21	886.00
218.48	928.00
218.74	961.00
219.01	932.00
219.28	855.00
219.55	877.00
219.82	933.00
220.08	934.00
220.35	888.00
220.62	903.00
220.89	947.00
221.16	969.00
221.42	920.00
221.69	917.00
221.96	929.00
222.23	955.00
222.50	947.00
222.76	947.00
223.03	918.00
223.30	905.00
223.57	880.00
223.84	877.00
224.10	887.00
224.37	922.00
224.64	886.00
224.91	910.00
225.18	932.00
225.44	940.00
225.71	906.00
225.98	933.00
226.25	967.00
226.51	974.00
226.78	904.00
227.05	906.00
227.32	912.00
227.59	925.00
227.85	937.00
228.12	921.00
228.39	964.00
228.66	958.00
228.92	950.00
229.19	923.00
229.46	943.00
229.73	916.00
230.00	885.00
230.26	915.00
230.53	952.00
230.80	932.00
231.07	859.00
231.33	867.00
231.60	931.00
231.87	962.00
232.14	906.00
232.41	958.00
232.67	939.00
232.94	942.00
233.21	902.00
233.48	910.00
233.74	918.00
234.01	911.00
234.28	881.00
234.55	899.00
234.81	922.00
235.08	955.00
235.35	915.00
235.62	893.00
235.88	898.00
236.15	946.00
236.42	920.00
236.69	913.00
236.95	931.00
237.22	911.00
237.49	908.00
237.76	900.00
238.02	933.00
238.29	945.00
238.56	907.00
238.83	905.00
239.09	908.00
239.36	940.00
239.63	895.00
239.90	911.00
240.16	964.00
240.43	994.00
240.70	925.00
240.97	920.00
241.23	917.00
241.50	936.00
241.77	897.00
242.04	906.00
242.30	890.00
242.57	916.00
242.84	882.00
243.11	909.00
243.37	898.00
243.64	930.00
243.91	900.00
244.18	890.00
244.44	884.00
244.71	908.00
244.98	904.00
245.24	918.00
245.51	923.00
245.78	952.00
246.05	894.00
246.31	893.00
246.58	936.00
246.85	913.00
247.12	899.00
247.38	932.00
247.65	928.00
247.92	952.00
248.18	914.00
248.45	923.00
248.72	927.00
248.99	934.00
249.25	872.00
249.52	884.00
249.79	925.00
250.05	933.00
250.32	904.00
250.59	900.00
250.86	911.00
251.12	926.00
251.39	891.00
251.66	909.00
251.92	948.00
252.19	947.00
252.46	895.00
252.73	941.00
252.99	957.00
253.26	949.00
253.53	885.00
253.79	906.00
254.06	928.00
254.33	911.00
254.60	886.00
254.86	890.00
255.13	923.00
255.40	968.00
255.66	920.00
255.93	923.00
256.20	950.00
256.46	951.00
256.73	918.00
257.00	915.00
257.26	938.00
257.53	944.00
257.80	920.00
258.07	936.00
258.33	987.00
258.60	944.00
258.87	888.00
259.13	910.00
259.40	913.00
259.67	957.00
259.93	916.00
260.20	936.00
260.47	953.00
260.73	920.00
261.00	894.00
261.27	914.00
261.53	939.00
261.80	919.00
262.07	869.00
262.34	904.00
262.60	894.00
262.87	929.00
263.14	892.00
263.40	930.00
263.67	897.00
263.94	898.00
264.20	917.00
264.47	894.00
264.74	900.00
265.00	916.00
265.27	884.00
265.54	899.00
265.80	929.00
266.07	948.00
266.34	899.00
266.60	908.00
266.87	937.00
267.14	943.00
267.40	898.00
267.67	881.00
267.94	915.00
268.20	915.00
268.47	884.00
268.74	902.00
269.00	918.00
269.27	906.00
269.54	869.00
269.80	879.00
270.07	940.00
270.33	890.00
270.60	881.00
270.87	909.00
271.13	921.00
271.40	936.00
271.67	847.00
271.93	860.00
272.20	918.00
272.47	882.00
272.73	853.00
273.00	895.00
273.27	904.00
273.53	941.00
273.80	889.00
274.07	882.00
274.33	875.00
274.60	922.00
274.86	901.00
275.13	913.00
275.40	883.00
275.66	923.00
275.93	881.00
276.20	896.00
276.46	901.00
276.73	905.00
277.00	895.00
277.26	910.00
277.53	914.00
277.79	906.00
278.06	886.00
278.33	925.00
278.59	930.00
278.86	895.00
279.13	906.00
279.39	898.00
279.66	946.00
279.93	956.00
280.19	898.00
280.46	888.00
280.72	882.00
280.99	922.00
281.26	900.00
281.52	893.00
281.79	919.00
282.05	935.00
282.32	896.00
282.59	905.00
282.85	936.00
283.12	926.00
283.39	903.00
283.65	908.00
283.92	935.00
284.18	954.00
284.45	920.00
284.72	912.00
284.98	906.00
285.25	895.00
285.51	914.00
285.78	910.00
286.05	905.00
286.31	909.00
286.58	874.00
286.84	885.00
287.11	912.00
287.38	935.00
287.64	913.00
287.91	882.00
288.17	926.00
288.44	925.00
288.71	884.00
288.97	907.00
289.24	928.00
289.50	917.00
289.77	906.00
290.04	867.00
290.30	899.00
290.57	953.00
290.83	889.00
291.10	877.00
291.37	910.00
291.63	921.00
291.90	929.00
292.16	904.00
292.43	922.00
292.70	910.00
292.96	869.00
293.23	883.00
293.49	899.00
293.76	922.00
294.02	892.00
294.29	877.00
294.56	908.00
294.82	932.00
295.09	894.00
295.35	884.00
295.62	944.00
295.89	969.00
296.15	861.00
296.42	884.00
296.68	917.00
296.95	912.00
297.21	904.00
297.48	903.00
297.75	909.00
298.01	929.00
298.28	883.00
298.54	907.00
298.81	916.00
299.07	913.00
299.34	864.00
299.61	905.00
299.87	927.00
300.14	932.00
300.40	938.00
300.67	911.00
300.93	916.00
301.20	954.00
301.46	889.00
301.73	905.00
302.00	926.00
302.26	913.00
302.53	890.00
302.79	897.00
303.06	915.00
303.32	950.00
303.59	862.00
303.85	874.00
304.12	910.00
304.39	937.00
304.65	908.00
304.92	892.00
305.18	910.00
305.45	928.00
305.71	888.00
305.98	925.00
306.24	918.00
306.51	895.00
306.77	894.00
307.04	900.00
307.31	944.00
307.57	932.00
307.84	881.00
308.10	902.00
308.37	893.00
308.63	906.00
308.90	879.00
309.16	927.00
309.43	936.00
309.69	922.00
309.96	892.00
310.22	891.00
310.49	910.00
310.76	921.00
311.02	875.00
311.29	889.00
311.55	915.00
311.82	927.00
312.08	914.00
312.35	918.00
312.61	921.00
312.88	926.00
313.14	877.00
313.41	870.00
313.67	882.00
313.94	919.00
314.20	900.00
314.47	920.00
314.73	900.00
315.00	893.00
315.26	885.00
315.53	903.00
315.79	908.00
316.06	928.00
316.32	904.00
316.59	918.00
316.85	879.00
317.12	937.00
317.39	875.00
317.65	900.00
317.92	913.00
318.18	927.00
318.45	912.00
318.71	958.00
318.98	939.00
319.24	912.00
319.51	903.00
319.77	895.00
320.04	899.00
320.30	924.00
320.57	900.00
320.83	898.00
321.10	878.00
321.36	900.00
321.63	870.00
321.89	897.00
322.16	945.00
322.42	933.00
322.69	887.00
322.95	889.00
323.22	925.00
323.48	939.00
323.75	891.00
324.01	904.00
324.28	933.00
324.54	913.00
324.80	891.00
325.07	916.00
325.33	925.00
325.60	908.00
325.86	875.00
326.13	895.00
326.39	892.00
326.66	896.00
326.92	840.00
327.19	888.00
327.45	949.00
327.72	935.00
327.98	885.00
328.25	875.00
328.51	917.00
328.78	900.00
329.04	870.00
329.31	897.00
329.57	917.00
329.84	907.00
330.10	882.00
330.37	906.00
330.63	937.00
330.89	951.00
331.16	887.00
331.42	890.00
331.69	923.00
331.95	911.00
332.22	896.00
332.48	926.00
332.75	913.00
333.01	897.00
333.28	872.00
333.54	903.00
333.81	912.00
334.07	923.00
334.34	903.00
334.60	910.00
334.86	951.00
335.13	953.00
335.39	926.00
335.66	902.00
335.92	923.00
336.19	920.00
336.45	849.00
336.72	878.00
336.98	893.00
337.24	914.00
337.51	887.00
337.77	888.00
338.04	903.00
338.30	927.00
338.57	868.00
338.83	902.00
339.10	920.00
339.36	927.00
339.63	885.00
339.89	869.00
340.15	898.00
340.42	941.00
340.68	915.00
340.95	912.00
341.21	917.00
341.48	923.00
341.74	878.00
342.00	882.00
342.27	914.00
342.53	908.00
342.80	878.00
343.06	872.00
343.33	914.00
343.59	937.00
343.85	893.00
344.12	907.00
344.38	964.00
344.65	954.00
344.91	889.00
345.18	892.00
345.44	917.00
345.70	890.00
345.97	867.00
346.23	881.00
346.50	924.00
346.76	906.00
347.03	902.00
347.29	908.00
347.55	922.00
347.82	888.00
348.08	845.00
348.35	862.00
348.61	950.00
348.87	920.00
349.14	865.00
349.40	889.00
349.67	928.00
349.93	914.00
350.20	900.00
350.46	915.00
350.72	943.00
350.99	908.00
351.25	885.00
351.52	885.00
351.78	907.00
352.04	915.00
352.31	905.00
352.57	908.00
352.84	901.00
353.10	910.00
353.36	903.00
353.63	901.00
353.89	906.00
354.16	925.00
354.42	919.00
354.68	893.00
354.95	946.00
355.21	939.00
355.48	900.00
355.74	929.00
356.00	962.00
356.27	954.00
356.53	882.00
356.80	874.00
357.06	928.00
357.32	921.00
357.59	919.00
357.85	927.00
358.11	952.00
358.38	930.00
358.64	890.00
358.91	885.00
359.17	906.00
359.43	931.00
359.70	890.00
359.96	901.00
360.22	923.00
360.49	894.00
360.75	887.00
361.02	885.00
361.28	907.00
361.54	924.00
361.81	861.00
362.07	893.00
362.33	903.00
362.60	899.00
362.86	875.00
363.13	905.00
363.39	921.00
363.65	932.00
363.92	854.00
364.18	868.00
364.44	914.00
364.71	911.00
364.97	889.00
365.24	893.00
365.50	940.00
365.76	930.00
366.03	897.00
366.29	908.00
366.55	909.00
366.82	898.00
367.08	867.00
367.34	897.00
367.61	918.00
367.87	931.00
368.13	894.00
368.40	915.00
368.66	969.00
368.93	936.00
369.19	873.00
369.45	870.00
369.72	910.00
369.98	910.00
370.24	871.00
370.51	881.00
370.77	914.00
371.03	922.00
371.30	906.00
371.56	918.00
371.82	931.00
372.09	917.00
372.35	912.00
372.61	917.00
372.88	911.00
373.14	924.00
373.40	884.00
373.67	899.00
373.93	934.00
374.19	946.00
374.46	877.00
374.72	900.00
374.98	918.00
375.25	929.00
375.51	914.00
375.77	927.00
376.04	939.00
376.30	937.00
376.56	868.00
376.83	875.00
377.09	893.00
377.35	909.00
377.62	891.00
377.88	890.00
378.14	885.00
378.41	914.00
378.67	891.00
378.93	892.00
379.20	934.00
379.46	902.00
379.72	884.00
379.99	893.00
380.25	905.00
380.51	882.00
380.77	881.00
381.04	902.00
381.30	922.00
381.56	930.00
381.83	904.00
382.09	869.00
382.35	897.00
382.62	934.00
382.88	913.00
383.14	902.00
383.41	918.00
383.67	913.00
383.93	892.00
384.20	895.00
384.46	916.00
384.72	931.00
384.98	881.00
385.25	923.00
385.51	933.00
385.77	899.00
386.04	877.00
386.30	862.00
386.56	919.00
386.82	958.00
387.09	899.00
387.35	922.00
387.61	990.00
387.88	943.00
388.14	924.00
388.40	913.00
388.67	906.00
388.93	901.00
389.19	879.00
389.45	884.00
389.72	901.00
389.98	919.00
390.24	906.00
390.51	897.00
390.77	909.00
391.03	925.00
391.29	878.00
391.56	901.00
391.82	927.00
392.08	966.00
392.35	908.00
392.61	898.00
392.87	912.00
393.13	930.00
393.40	876.00
393.66	885.00
393.92	917.00
394.18	927.00
394.45	883.00
394.71	882.00
394.97	901.00
395.24	881.00
395.50	873.00
395.76	911.00
396.02	926.00
396.29	933.00
396.55	877.00
396.81	853.00
397.07	898.00
397.34	888.00
397.60	857.00
397.86	871.00
398.12	900.00
398.39	940.00
398.65	880.00
398.91	889.00
399.17	893.00
399.44	867.00
399.70	836.00
399.96	863.00
400.22	886.00
400.49	948.00
400.75	905.00
401.01	904.00
401.27	913.00
401.54	937.00
401.80	891.00
402.06	880.00
402.32	915.00
402.59	899.00
402.85	880.00
403.11	886.00
403.37	886.00
403.64	928.00
403.90	892.00
404.16	892.00
404.42	903.00
404.69	885.00
404.95	875.00
405.21	855.00
405.47	892.00
405.74	933.00
406.00	891.00
406.26	881.00
406.52	910.00
406.79	928.00
407.05	885.00
407.31	890.00
407.57	861.00
407.83	915.00
408.10	862.00
408.36	887.00
408.62	905.00
408.88	887.00
409.15	858.00
409.41	855.00
409.67	885.00
409.93	947.00
410.20	928.00
410.46	885.00
410.72	880.00
410.98	901.00
411.24	875.00
411.51	888.00
411.77	905.00
412.03	922.00
412.29	913.00
412.55	901.00
412.82	911.00
413.08	913.00
413.34	885.00
413.60	886.00
413.87	917.00
414.13	920.00
414.39	867.00
414.65	897.00
414.91	920.00
415.18	906.00
415.44	876.00
415.70	873.00
415.96	915.00
416.22	917.00
416.49	876.00
416.75	885.00
417.01	888.00
417.27	895.00
417.53	877.00
417.80	883.00
418.06	914.00
418.32	931.00
418.58	872.00
418.84	865.00
419.11	908.00
419.37	929.00
419.63	887.00
419.89	904.00
420.15	906.00
420.42	905.00
420.68	872.00
420.94	882.00
421.20	909.00
421.46	912.00
421.72	897.00
421.99	895.00
422.25	910.00
422.51	913.00
422.77	899.00
423.03	913.00
423.30	918.00
423.56	928.00
423.82	917.00
424.08	909.00
424.34	915.00
424.60	913.00
424.87	885.00
425.13	873.00
425.39	893.00
425.65	901.00
425.91	883.00
426.18	908.00
426.44	908.00
426.70	903.00
426.96	843.00
427.22	857.00
427.48	881.00
427.75	884.00
428.01	841.00
428.27	885.00
428.53	914.00
428.79	888.00
429.05	868.00
429.32	874.00
429.58	923.00
429.84	906.00
430.10	900.00
430.36	897.00
430.62	923.00
430.88	938.00
431.15	903.00
431.41	909.00
431.67	913.00
431.93	894.00
432.19	865.00
432.45	888.00
432.72	903.00
432.98	901.00
433.24	909.00
433.50	988.00
433.76	914.00
434.02	877.00
434.28	868.00
434.55	884.00
434.81	898.00
435.07	916.00
435.33	867.00
435.59	862.00
435.85	897.00
436.11	916.00
436.38	862.00
436.64	865.00
436.90	882.00
437.16	884.00
437.42	866.00
437.68	880.00
437.94	901.00
438.21	924.00
438.47	917.00
438.73	923.00
438.99	894.00
439.25	890.00
439.51	876.00
439.77	889.00
440.03	891.00
440.30	909.00
440.56	893.00
440.82	912.00
441.08	916.00
441.34	910.00
441.60	863.00
441.86	898.00
442.12	906.00
442.39	903.00
442.65	892.00
442.91	884.00
443.17	906.00
443.43	924.00
443.69	900.00
443.95	885.00
444.21	895.00
444.47	919.00
444.74	850.00
445.00	873.00
445.26	887.00
445.52	900.00
445.78	869.00
446.04	882.00
446.30	933.00
446.56	936.00
446.82	877.00
447.09	883.00
447.35	927.00
447.61	910.00
447.87	894.00
448.13	902.00
448.39	944.00
448.65	921.00
448.91	870.00
449.17	893.00
449.43	899.00
449.70	897.00
449.96	851.00
450.22	874.00
450.48	909.00
450.74	952.00
451.00	894.00
451.26	890.00
451.52	901.00
451.78	903.00
452.04	883.00
452.31	934.00
452.57	926.00
452.83	900.00
453.09	882.00
453.35	898.00
453.61	915.00
453.87	917.00
454.13	917.00
454.39	924.00
454.65	957.00
454.91	967.00
455.17	881.00
455.44	890.00
455.70	898.00
455.96	901.00
456.22	861.00
456.48	885.00
456.74	904.00
457.00	870.00
457.26	825.00
457.52	889.00
457.78	897.00
458.04	903.00
458.30	843.00
458.56	878.00
458.82	902.00
459.09	877.00
459.35	828.00
459.61	857.00
459.87	908.00
460.13	921.00
460.39	875.00
460.65	851.00
460.91	909.00
461.17	890.00
461.43	862.00
461.69	876.00
461.95	918.00
462.21	893.00
462.47	882.00
462.73	905.00
462.99	924.00
463.26	910.00
463.52	846.00
463.78	849.00
464.04	884.00
464.30	886.00
464.56	885.00
464.82	893.00
465.08	929.00
465.34	935.00
465.60	908.00
465.86	891.00
466.12	903.00
466.38	878.00
466.64	846.00
466.90	875.00
467.16	899.00
467.42	910.00
467.68	877.00
467.94	879.00
468.20	926.00
468.46	903.00
468.72	876.00
468.98	910.00
469.25	920.00
469.51	880.00
469.77	895.00
470.03	902.00
470.29	903.00
470.55	906.00
470.81	879.00
471.07	905.00
471.33	923.00
471.59	918.00
471.85	895.00
472.11	901.00
472.37	911.00
472.63	889.00
472.89	879.00
473.15	890.00
473.41	913.00
473.67	901.00
473.93	855.00
474.19	861.00
474.45	878.00
474.71	891.00
474.97	869.00
475.23	866.00
475.49	887.00
475.75	879.00
476.01	882.00
476.27	889.00
476.53	916.00
476.79	916.00
477.05	874.00
477.31	861.00
477.57	906.00
477.83	898.00
478.09	847.00
478.35	891.00
478.61	925.00
478.87	918.00
479.13	866.00
479.39	901.00
479.65	924.00
479.91	924.00
480.17	906.00
480.43	920.00
480.69	894.00
480.95	909.00
481.21	876.00
481.47	886.00
481.73	892.00
481.99	888.00
482.25	862.00
482.51	862.00
482.77	899.00
483.03	904.00
483.29	892.00
483.55	884.00
483.81	907.00
484.07	914.00
484.33	862.00
484.59	869.00
484.85	928.00
485.11	913.00
485.37	888.00
485.63	889.00
485.89	888.00
486.15	886.00
486.41	866.00
486.67	898.00
486.93	909.00
487.19	884.00
487.45	880.00
487.71	859.00
487.97	924.00
488.23	905.00
488.49	869.00
488.75	865.00
489.01	899.00
489.27	931.00
489.53	873.00
489.79	869.00
490.05	900.00
490.31	921.00
490.57	894.00
490.83	944.00
491.08	895.00
491.34	885.00
491.60	873.00
491.86	887.00
492.12	918.00
492.38	933.00
492.64	867.00
492.90	880.00
493.16	911.00
493.42	870.00
493.68	853.00
493.94	895.00
494.20	877.00
494.46	883.00
494.72	865.00
494.98	873.00
495.24	880.00
495.50	902.00
495.76	887.00
496.02	913.00
496.28	943.00
496.54	922.00
496.80	883.00
497.05	856.00
497.31	925.00
497.57	926.00
497.83	883.00
498.09	901.00
498.35	933.00
498.61	909.00
498.87	893.00
499.13	893.00
499.39	886.00
499.65	890.00
499.91	884.00
500.17	887.00
500.43	971.00
500.69	978.00
500.95	881.00
501.20	906.00
501.46	907.00
501.72	907.00
501.98	903.00
502.24	905.00
502.50	942.00
502.76	898.00
503.02	873.00
503.28	881.00
503.54	940.00
503.80	959.00
504.06	918.00
504.32	916.00
504.58	928.00
504.83	914.00
505.09	875.00
505.35	898.00
505.61	889.00
505.87	903.00
506.13	891.00
506.39	880.00
506.65	914.00
506.91	947.00
507.17	882.00
507.43	882.00
507.68	906.00
507.94	918.00
508.20	880.00
508.46	866.00
508.72	945.00
508.98	931.00
509.24	854.00
509.50	890.00
509.76	885.00
510.02	889.00
510.28	868.00
510.53	872.00
510.79	913.00
511.05	910.00
511.31	883.00
511.57	887.00
511.83	903.00
512.09	917.00
512.35	876.00
512.61	901.00
512.87	907.00
513.12	911.00
513.38	866.00
513.64	881.00
513.90	902.00
514.16	950.00
514.42	906.00
514.68	896.00
514.94	909.00
515.20	927.00
515.45	877.00
515.71	878.00
515.97	906.00
516.23	904.00
516.49	861.00
516.75	880.00
517.01	906.00
517.27	896.00
517.53	863.00
517.78	879.00
518.04	905.00
518.30	895.00
518.56	868.00
518.82	903.00
519.08	930.00
519.34	887.00
519.60	876.00
519.85	893.00
520.11	892.00
520.37	898.00
520.63	877.00
520.89	899.00
521.15	893.00
521.41	897.00
521.66	871.00
521.92	880.00
522.18	918.00
522.44	917.00
522.70	880.00
522.96	858.00
523.22	906.00
523.48	889.00
523.73	871.00
523.99	875.00
524.25	941.00
524.51	930.00
524.77	863.00
525.03	869.00
525.29	904.00
525.54	926.00
525.80	889.00
526.06	880.00
526.32	892.00
526.58	891.00
526.84	879.00
527.09	865.00
527.35	870.00
527.61	890.00
527.87	868.00
528.13	905.00
528.39	901.00
528.65	883.00
528.90	841.00
529.16	860.00
529.42	875.00
529.68	882.00
529.94	876.00
530.20	878.00
530.45	874.00
530.71	896.00
530.97	866.00
531.23	881.00
531.49	892.00
531.75	883.00
532.00	878.00
532.26	863.00
532.52	903.00
532.78	895.00
533.04	873.00
533.30	891.00
533.55	901.00
533.81	903.00
534.07	860.00
534.33	861.00
534.59	897.00
534.85	907.00
535.10	876.00
535.36	868.00
535.62	907.00
535.88	883.00
536.14	858.00
536.39	866.00
536.65	922.00
536.91	912.00
537.17	877.00
537.43	888.00
537.69	910.00
537.94	904.00
538.20	870.00
538.46	884.00
538.72	890.00
538.98	911.00
539.23	858.00
539.49	853.00
539.75	918.00
540.01	905.00
540.27	863.00
540.52	921.00
540.78	909.00
541.04	913.00
541.30	864.00
541.56	845.00
541.81	926.00
542.07	1000.00
542.33	900.00
542.59	878.00
542.85	899.00
543.10	897.00
543.36	869.00
543.62	886.00
543.88	899.00
544.14	893.00
544.39	881.00
544.65	891.00
544.91	924.00
545.17	891.00
545.43	882.00
545.68	890.00
545.94	906.00
546.20	918.00
546.46	887.00
546.71	889.00
546.97	922.00
547.23	914.00
547.49	873.00
547.75	875.00
548.00	897.00
548.26	916.00
548.52	871.00
548.78	870.00
549.03	896.00
549.29	884.00
549.55	845.00
549.81	886.00
550.07	912.00
550.32	925.00
550.58	842.00
550.84	879.00
551.10	884.00
551.35	880.00
551.61	874.00
551.87	885.00
552.13	892.00
552.39	891.00
552.64	842.00
552.90	869.00
553.16	895.00
553.42	907.00
553.67	859.00
553.93	871.00
554.19	911.00
554.45	935.00
554.70	878.00
554.96	854.00
555.22	873.00
555.48	924.00
555.73	872.00
555.99	870.00
556.25	917.00
556.51	906.00
556.76	866.00
557.02	896.00
557.28	904.00
557.54	878.00
557.79	852.00
558.05	899.00
558.31	884.00
558.57	908.00
558.82	847.00
559.08	853.00
559.34	862.00
559.60	905.00
559.85	873.00
560.11	891.00
560.37	892.00
560.63	883.00
560.88	851.00
561.14	866.00
561.40	908.00
561.66	881.00
561.91	874.00
562.17	884.00
562.43	900.00
562.68	912.00
562.94	892.00
563.20	912.00
563.46	940.00
563.71	925.00
563.97	856.00
564.23	873.00
564.49	913.00
564.74	916.00
565.00	871.00
565.26	874.00
565.51	891.00
565.77	870.00
566.03	859.00
566.29	894.00
566.54	860.00
566.80	873.00
567.06	873.00
567.31	892.00
567.57	928.00
567.83	908.00
568.09	884.00
568.34	881.00
568.60	899.00
568.86	924.00
569.11	901.00
569.37	880.00
569.63	916.00
569.89	912.00
570.14	831.00
570.40	859.00
570.66	880.00
570.91	884.00
571.17	860.00
571.43	900.00
571.69	924.00
571.94	933.00
572.20	871.00
572.46	878.00
572.71	911.00
572.97	892.00
573.23	869.00
573.48	874.00
573.74	895.00
574.00	914.00
574.26	864.00
574.51	870.00
574.77	911.00
575.03	882.00
575.28	871.00
575.54	872.00
575.80	864.00
576.05	902.00
576.31	859.00
576.57	849.00
576.82	890.00
577.08	906.00
577.34	877.00
577.59	879.00
577.85	923.00
578.11	882.00
578.37	855.00
578.62	855.00
578.88	909.00
579.14	924.00
579.39	876.00
579.65	882.00
579.91	891.00
580.16	923.00
580.42	887.00
580.68	889.00
580.93	905.00
581.19	869.00
581.45	855.00
581.70	876.00
581.96	902.00
582.22	909.00
582.47	889.00
582.73	892.00
582.99	939.00
583.24	909.00
583.50	853.00
583.76	864.00
584.01	891.00
584.27	912.00
584.53	880.00
584.78	880.00
585.04	881.00
585.30	907.00
585.55	890.00
585.81	888.00
586.07	924.00
586.32	918.00
586.58	872.00
586.83	879.00
587.09	905.00
587.35	899.00
587.60	866.00
587.86	867.00
588.12	886.00
588.37	907.00
588.63	873.00
588.89	879.00
589.14	906.00
589.40	894.00
589.66	859.00
589.91	884.00
590.17	897.00
590.43	861.00
590.68	850.00
590.94	879.00
591.19	906.00
591.45	905.00
591.71	867.00
591.96	893.00
592.22	899.00
592.48	920.00
592.73	871.00
592.99	885.00
593.25	883.00
593.50	898.00
593.76	875.00
594.01	883.00
594.27	914.00
594.53	904.00
594.78	870.00
595.04	883.00
595.30	905.00
595.55	892.00
595.81	846.00
596.06	888.00
596.32	923.00
596.58	931.00
596.83	882.00
597.09	896.00
597.35	900.00
597.60	877.00
597.86	859.00
598.11	881.00
598.37	918.00
598.63	897.00
598.88	875.00
599.14	883.00
599.39	922.00
599.65	887.00
599.91	835.00
600.16	883.00
600.42	897.00
600.67	929.00
600.93	864.00
601.19	896.00
601.44	940.00
601.70	911.00
601.95	875.00
602.21	885.00
602.47	877.00
602.72	898.00
602.98	873.00
603.23	876.00
603.49	918.00
603.75	919.00
604.00	878.00
604.26	890.00
604.51	902.00
604.77	941.00
605.03	866.00
605.28	874.00
605.54	917.00
605.79	942.00
606.05	875.00
606.31	876.00
606.56	919.00
606.82	937.00
607.07	899.00
607.33	909.00
607.59	932.00
607.84	910.00
608.10	867.00
608.35	887.00
608.61	919.00
608.86	925.00
609.12	901.00
609.38	908.00
609.63	934.00
609.89	919.00
610.14	867.00
610.40	887.00
610.65	918.00
610.91	918.00
611.17	884.00
611.42	907.00
611.68	942.00
611.93	957.00
612.19	926.00
612.44	922.00
612.70	937.00
612.96	909.00
613.21	893.00
613.47	907.00
613.72	919.00
613.98	943.00
614.23	917.00
614.49	938.00
614.75	948.00
615.00	937.00
615.26	918.00
615.51	919.00
615.77	955.00
616.02	955.00
616.28	917.00
616.53	935.00
616.79	938.00
617.05	936.00
617.30	908.00
617.56	925.00
617.81	972.00
618.07	980.00
618.32	947.00
618.58	969.00
618.83	983.00
619.09	976.00
619.34	937.00
619.60	945.00
619.86	982.00
620.11	992.00
620.37	968.00
620.62	970.00
620.88	992.00
621.13	998.00
621.39	961.00
621.64	981.00
621.90	1023.00
622.15	1006.00
622.41	985.00
622.66	997.00
622.92	1013.00
623.18	1021.00
623.43	982.00
623.69	1013.00
623.94	1048.00
624.20	1053.00
624.45	1027.00
624.71	1041.00
624.96	1043.00
625.22	1096.00
625.47	1070.00
625.73	1079.00
625.98	1098.00
626.24	1080.00
626.49	1047.00
626.75	1097.00
627.00	1167.00
627.26	1198.00
627.51	1148.00
627.77	1134.00
628.02	1142.00
628.28	1176.00
628.53	1153.00
628.79	1178.00
629.05	1188.00
629.30	1194.00
629.56	1168.00
629.81	1215.00
630.07	1223.00
630.32	1256.00
630.58	1255.00
630.83	1256.00
631.09	1277.00
631.34	1329.00
631.60	1305.00
631.85	1302.00
632.11	1265.00
632.36	1253.00
632.62	1267.00
632.87	1330.00
633.13	1348.00
633.38	1337.00
633.64	1330.00
633.89	1368.00
634.15	1354.00
634.40	1409.00
634.66	1404.00
634.91	1461.00
635.17	1449.00
635.42	1424.00
635.68	1390.00
635.93	1363.00
636.18	1395.00
636.44	1401.00
636.69	1379.00
636.95	1396.00
637.20	1443.00
637.46	1437.00
637.71	1405.00
637.97	1430.00
638.22	1465.00
638.48	1449.00
638.73	1426.00
638.99	1417.00
639.24	1439.00
639.50	1429.00
639.75	1434.00
640.01	1466.00
640.26	1478.00
640.52	1510.00
640.77	1513.00
641.03	1478.00
641.28	1426.00
641.54	1416.00
641.79	1371.00
642.04	1379.00
642.30	1416.00
642.55	1411.00
642.81	1317.00
643.06	1312.00
643.32	1355.00
643.57	1364.00
643.83	1275.00
644.08	1240.00
644.34	1247.00
644.59	1266.00
644.85	1156.00
645.10	1135.00
645.35	1125.00
645.61	1129.00
645.86	1104.00
646.12	1077.00
646.37	1108.00
646.63	1093.00
646.88	1024.00
647.14	1054.00
647.39	1063.00
647.65	1094.00
647.90	1039.00
648.15	1042.00
648.41	1105.00
648.66	1105.00
648.92	1037.00
649.17	1029.00
649.43	1012.00
649.68	1011.00
649.94	993.00
650.19	970.00
650.44	974.00
650.70	982.00
650.95	935.00
651.21	969.00
651.46	1015.00
651.72	1004.00
651.97	974.00
652.23	962.00
652.48	952.00
652.73	954.00
652.99	944.00
653.24	930.00
653.50	932.00
653.75	943.00
654.01	931.00
654.26	919.00
654.51	934.00
654.77	939.00
655.02	906.00
655.28	897.00
655.53	911.00
655.79	939.00
656.04	916.00
656.29	915.00
656.55	908.00
656.80	926.00
657.06	875.00
657.31	891.00
657.56	908.00
657.82	889.00
658.07	884.00
658.33	905.00
658.58	918.00
658.84	936.00
659.09	890.00
659.34	902.00
659.60	906.00
659.85	911.00
660.11	899.00
660.36	900.00
660.61	903.00
660.87	872.00
661.12	860.00
661.38	883.00
661.63	886.00
661.88	880.00
662.14	891.00
662.39	900.00
662.65	947.00
662.90	953.00
663.15	864.00
663.41	889.00
663.66	927.00
663.92	937.00
664.17	894.00
664.42	901.00
664.68	904.00
664.93	894.00
665.19	860.00
665.44	872.00
665.69	897.00
665.95	912.00
666.20	870.00
666.45	902.00
666.71	904.00
666.96	917.00
667.22	840.00
667.47	862.00
667.72	890.00
667.98	893.00
668.23	871.00
668.49	910.00
668.74	912.00
668.99	889.00
669.25	861.00
669.50	882.00
669.75	914.00
670.01	904.00
670.26	841.00
670.52	873.00
670.77	918.00
671.02	878.00
671.28	861.00
671.53	891.00
671.78	913.00
672.04	914.00
672.29	876.00
672.54	858.00
672.80	864.00
673.05	884.00
673.31	856.00
673.56	911.00
673.81	931.00
674.07	905.00
674.32	889.00
674.57	883.00
674.83	885.00
675.08	885.00
675.33	870.00
675.59	877.00
675.84	909.00
676.09	901.00
676.35	873.00
676.60	879.00
676.86	892.00
677.11	920.00
677.36	878.00
677.62	890.00
677.87	938.00
678.12	948.00
678.38	855.00
678.63	866.00
678.88	910.00
679.14	933.00
679.39	841.00
679.64	880.00
679.90	892.00
680.15	902.00
680.40	896.00
680.66	875.00
680.91	901.00
681.16	905.00
681.42	874.00
681.67	861.00
681.92	892.00
682.18	938.00
682.43	872.00
682.68	870.00
682.94	897.00
683.19	869.00
683.44	858.00
683.70	899.00
683.95	903.00
684.20	894.00
684.46	887.00
684.71	895.00
684.96	896.00
685.22	901.00
685.47	886.00
685.72	894.00
685.98	908.00
686.23	860.00
686.48	851.00
686.74	889.00
686.99	909.00
687.24	889.00
687.50	871.00
687.75	865.00
688.00	875.00
688.25	893.00
688.51	870.00
688.76	906.00
689.01	871.00
689.27	878.00
689.52	852.00
689.77	874.00
690.03	858.00
690.28	863.00
690.53	857.00
690.79	886.00
691.04	903.00
691.29	903.00
691.54	852.00
691.80	870.00
692.05	883.00
692.30	888.00
692.56	862.00
692.81	893.00
693.06	878.00
693.32	874.00
693.57	857.00
693.82	893.00
694.07	894.00
694.33	900.00
694.58	870.00
694.83	898.00
695.09	882.00
695.34	907.00
695.59	876.00
695.84	896.00
696.10	908.00
696.35	912.00
696.60	852.00
696.86	847.00
697.11	896.00
697.36	899.00
697.61	850.00
697.87	883.00
698.12	886.00
698.37	898.00
698.63	873.00
698.88	874.00
699.13	894.00
699.38	900.00
699.64	866.00
699.89	876.00
700.14	885.00
700.39	884.00
700.65	869.00
700.90	892.00
701.15	891.00
701.40	901.00
701.66	865.00
701.91	867.00
702.16	862.00
702.42	869.00
702.67	835.00
702.92	865.00
703.17	878.00
703.43	903.00
703.68	887.00
703.93	912.00
704.18	929.00
704.44	894.00
704.69	853.00
704.94	882.00
705.19	867.00
705.45	897.00
705.70	888.00
705.95	872.00
706.20	870.00
706.46	892.00
706.71	881.00
706.96	870.00
707.21	894.00
707.47	892.00
707.72	882.00
707.97	880.00
708.22	916.00
708.48	920.00
708.73	861.00
708.98	838.00
709.23	886.00
709.49	903.00
709.74	866.00
709.99	870.00
710.24	888.00
710.50	900.00
710.75	874.00
711.00	893.00
711.25	900.00
711.50	881.00
711.76	862.00
712.01	870.00
712.26	865.00
712.51	884.00
712.77	869.00
713.02	867.00
713.27	861.00
713.52	867.00
713.78	854.00
714.03	872.00
714.28	875.00
714.53	877.00
714.78	878.00
715.04	909.00
715.29	923.00
715.54	909.00
715.79	866.00
716.05	901.00
716.30	916.00
716.55	907.00
716.80	880.00
717.05	885.00
717.31	905.00
717.56	912.00
717.81	892.00
718.06	862.00
718.31	859.00
718.57	894.00
718.82	867.00
719.07	896.00
719.32	888.00
719.57	910.00
719.83	853.00
720.08	891.00
720.33	882.00
720.58	862.00
720.83	826.00
721.09	920.00
721.34	910.00
721.59	925.00
721.84	883.00
722.09	873.00
722.35	895.00
722.60	878.00
722.85	838.00
723.10	876.00
723.35	884.00
723.61	901.00
723.86	899.00
724.11	881.00
724.36	876.00
724.61	883.00
724.87	879.00
725.12	869.00
725.37	863.00
725.62	858.00
725.87	863.00
726.12	867.00
726.38	857.00
726.63	887.00
726.88	856.00
727.13	888.00
727.38	873.00
727.64	891.00
727.89	866.00
728.14	870.00
728.39	862.00
728.64	897.00
728.89	879.00
729.15	884.00
729.40	912.00
729.65	900.00
729.90	867.00
730.15	878.00
730.40	895.00
730.66	899.00
730.91	850.00
731.16	870.00
731.41	880.00
731.66	887.00
731.91	876.00
732.17	901.00
732.42	909.00
732.67	909.00
732.92	866.00
733.17	902.00
733.42	882.00
733.68	889.00
733.93	862.00
734.18	884.00
734.43	867.00
734.68	878.00
734.93	875.00
735.18	894.00
735.44	892.00
735.69	901.00
735.94	833.00
736.19	852.00
736.44	871.00
736.69	909.00
736.95	861.00
737.20	884.00
737.45	896.00
737.70	898.00
737.95	887.00
738.20	903.00
738.45	907.00
738.70	892.00
738.96	863.00
739.21	891.00
739.46	902.00
739.71	918.00
739.96	885.00
740.21	905.00
740.46	962.00
740.72	927.00
740.97	860.00
741.22	893.00
741.47	873.00
741.72	900.00
741.97	857.00
742.22	873.00
742.47	890.00
742.73	878.00
742.98	847.00
743.23	860.00
743.48	857.00
743.73	893.00
743.98	875.00
744.23	882.00
744.48	897.00
744.74	863.00
744.99	860.00
745.24	900.00
745.49	888.00
745.74	911.00
745.99	865.00
746.24	884.00
746.49	875.00
746.74	892.00
747.00	888.00
747.25	881.00
747.50	842.00
747.75	868.00
748.00	812.00
748.25	868.00
748.50	876.00
748.75	899.00
749.00	890.00
749.26	917.00
749.51	898.00
749.76	910.00
750.01	861.00
750.26	879.00
750.51	917.00
750.76	905.00
751.01	851.00
751.26	872.00
751.51	894.00
751.77	908.00
752.02	889.00
752.27	884.00
752.52	890.00
752.77	890.00
753.02	865.00
753.27	901.00
753.52	901.00
753.77	897.00
754.02	878.00
754.27	892.00
754.52	877.00
754.78	902.00
755.03	875.00
755.28	892.00
755.53	902.00
755.78	900.00
756.03	859.00
756.28	887.00
756.53	877.00
756.78	880.00
757.03	860.00
757.28	890.00
757.53	902.00
757.79	875.00
758.04	848.00
758.29	914.00
758.54	898.00
758.79	904.00
759.04	845.00
759.29	849.00
759.54	882.00
759.79	873.00
760.04	881.00
760.29	888.00
760.54	872.00
760.79	883.00
761.04	860.00
761.29	873.00
761.55	874.00
761.80	879.00
762.05	861.00
762.30	882.00
762.55	889.00
762.80	890.00
763.05	884.00
763.30	898.00
763.55	917.00
763.80	890.00
764.05	849.00
764.30	887.00
764.55	915.00
764.80	894.00
765.05	865.00
765.30	921.00
765.55	897.00
765.80	890.00
766.05	853.00
766.30	894.00
766.56	888.00
766.81	900.00
767.06	884.00
767.31	888.00
767.56	876.00
767.81	897.00
768.06	871.00
768.31	869.00
768.56	882.00
768.81	936.00
769.06	876.00
769.31	888.00
769.56	866.00
769.81	878.00
770.06	861.00
770.31	868.00
770.56	882.00
770.81	859.00
771.06	838.00
771.31	873.00
771.56	892.00
771.81	910.00
772.06	849.00
772.31	893.00
772.56	901.00
772.81	901.00
773.06	871.00
773.31	900.00
773.56	885.00
773.81	857.00
774.06	821.00
774.31	883.00
774.56	902.00
774.81	896.00
775.06	877.00
775.31	907.00
775.56	906.00
775.81	873.00
776.06	843.00
776.31	877.00
776.56	881.00
776.82	888.00
777.07	864.00
777.32	859.00
777.57	876.00
777.82	908.00
778.07	862.00
778.32	881.00
778.57	901.00
778.82	897.00
779.07	877.00
779.32	884.00
779.57	857.00
779.82	878.00
780.07	859.00
780.32	883.00
780.56	893.00
780.81	906.00
781.06	847.00
781.31	866.00
781.56	912.00
781.81	903.00
782.06	848.00
782.31	879.00
782.56	890.00
782.81	924.00
783.06	860.00
783.31	864.00
783.56	872.00
783.81	909.00
784.06	873.00
784.31	867.00
784.56	844.00
784.81	912.00
785.06	891.00
785.31	882.00
785.56	872.00
785.81	860.00
786.06	852.00
786.31	887.00
786.56	873.00
786.81	897.00
787.06	882.00
787.31	878.00
787.56	885.00
787.81	871.00
788.06	846.00
788.31	891.00
788.56	879.00
788.81	924.00
789.06	886.00
789.31	874.00
789.56	889.00
789.81	876.00
790.06	853.00
790.31	900.00
790.56	877.00
790.80	877.00
791.05	854.00
791.30	864.00
791.55	864.00
791.80	885.00
792.05	860.00
792.30	869.00
792.55	872.00
792.80	873.00
793.05	865.00
793.30	891.00
793.55	904.00
793.80	898.00
794.05	868.00
794.30	870.00
794.55	880.00
794.80	888.00
795.05	861.00
795.30	867.00
795.54	860.00
795.79	892.00
796.04	840.00
796.29	894.00
796.54	882.00
796.79	908.00
797.04	869.00
797.29	885.00
797.54	899.00
797.79	896.00
798.04	869.00
798.29	854.00
798.54	855.00
798.79	891.00
799.04	867.00
799.29	881.00
799.53	886.00
799.78	890.00
800.03	879.00
800.28	855.00
800.53	876.00
800.78	906.00
801.03	870.00
801.28	882.00
801.53	860.00
801.78	897.00
802.03	863.00
802.28	880.00
802.52	910.00
802.77	925.00
803.02	895.00
803.27	905.00
803.52	861.00
803.77	906.00
804.02	890.00
804.27	909.00
804.52	884.00
804.77	904.00
805.02	876.00
805.27	901.00
805.51	893.00
805.76	887.00
806.01	844.00
806.26	860.00
806.51	869.00
806.76	900.00
807.01	879.00
807.26	866.00
807.51	905.00
807.76	873.00
808.00	832.00
808.25	877.00
808.50	893.00
808.75	875.00
809.00	846.00
809.25	879.00
809.50	899.00
809.75	923.00
810.00	895.00
810.24	871.00
810.49	845.00
810.74	865.00
810.99	875.00
811.24	880.00
811.49	884.00
811.74	898.00
811.99	853.00
812.24	870.00
812.48	865.00
812.73	861.00
812.98	843.00
813.23	854.00
813.48	885.00
813.73	866.00
813.98	838.00
814.23	870.00
814.47	866.00
814.72	862.00
814.97	848.00
815.22	878.00
815.47	862.00
815.72	884.00
815.97	844.00
816.22	872.00
816.46	868.00
816.71	894.00
816.96	871.00
817.21	894.00
817.46	870.00
817.71	884.00
817.96	865.00
818.20	862.00
818.45	853.00
818.70	876.00
818.95	848.00
819.20	869.00
819.45	882.00
819.70	903.00
819.94	856.00
820.19	879.00
820.44	865.00
820.69	883.00
820.94	855.00
821.19	897.00
821.44	951.00
821.68	960.00
821.93	880.00
822.18	894.00
822.43	896.00
822.68	904.00
822.93	864.00
823.17	867.00
823.42	888.00
823.67	867.00
823.92	850.00
824.17	884.00
824.42	875.00
824.67	900.00
824.91	874.00
825.16	880.00
825.41	899.00
825.66	898.00
825.91	835.00
826.16	862.00
826.40	883.00
826.65	888.00
826.90	859.00
827.15	879.00
827.40	881.00
827.65	909.00
827.89	827.00
828.14	869.00
828.39	892.00
828.64	892.00
828.89	855.00
829.13	862.00
829.38	844.00
829.63	869.00
829.88	865.00
830.13	861.00
830.38	876.00
830.62	889.00
830.87	868.00
831.12	889.00
831.37	922.00
831.62	929.00
831.86	877.00
832.11	873.00
832.36	850.00
832.61	899.00
832.86	876.00
833.10	877.00
833.35	866.00
833.60	901.00
833.85	882.00
834.10	894.00
834.35	917.00
834.59	917.00
834.84	878.00
835.09	897.00
835.34	871.00
835.59	875.00
835.83	865.00
836.08	886.00
836.33	891.00
836.58	900.00
836.83	877.00
837.07	872.00
837.32	882.00
837.57	880.00
837.82	862.00
838.06	897.00
838.31	913.00
838.56	925.00
838.81	851.00
839.06	884.00
839.30	882.00
839.55	913.00
839.80	865.00
840.05	893.00
840.30	917.00
840.54	925.00
840.79	853.00
841.04	879.00
841.29	899.00
841.53	890.00
841.78	870.00
842.03	873.00
842.28	859.00
842.53	859.00
842.77	860.00
843.02	877.00
843.27	871.00
843.52	879.00
843.76	860.00
844.01	886.00
844.26	866.00
844.51	901.00
844.75	854.00
845.00	857.00
845.25	885.00
845.50	913.00
845.75	875.00
845.99	884.00
846.24	884.00
846.49	911.00
846.74	851.00
846.98	856.00
847.23	860.00
847.48	887.00
847.73	854.00
847.97	877.00
848.22	912.00
848.47	910.00
848.72	854.00
848.96	865.00
849.21	892.00
849.46	884.00
849.71	867.00
849.95	871.00
850.20	861.00
850.45	891.00
850.70	839.00
850.94	870.00
851.19	876.00
851.44	859.00
851.69	844.00
851.93	876.00
852.18	901.00
852.43	876.00
852.68	873.00
852.92	918.00
853.17	933.00
853.42	903.00
853.66	874.00
853.91	903.00
854.16	883.00
854.41	920.00
854.65	854.00
854.90	875.00
855.15	881.00
855.40	891.00
855.64	884.00
855.89	881.00
856.14	881.00
856.39	883.00
856.63	862.00
856.88	861.00
857.13	860.00
857.37	855.00
857.62	847.00
857.87	837.00
858.12	870.00
858.36	908.00
858.61	831.00
858.86	863.00
859.10	893.00
859.35	896.00
859.60	874.00
859.85	852.00
860.09	861.00
860.34	895.00
860.59	869.00
860.83	885.00
861.08	882.00
861.33	908.00
861.58	863.00
861.82	852.00
862.07	871.00
862.32	887.00
862.56	851.00
862.81	870.00
863.06	870.00
863.30	875.00
863.55	872.00
863.80	884.00
864.05	886.00
864.29	881.00
864.54	877.00
864.79	883.00
865.03	887.00
865.28	921.00
865.53	871.00
865.77	843.00
866.02	871.00
866.27	907.00
866.51	887.00
866.76	850.00
867.01	860.00
867.26	884.00
867.50	856.00
867.75	854.00
868.00	897.00
868.24	905.00
868.49	853.00
868.74	880.00
868.98	857.00
869.23	861.00
869.48	864.00
869.72	868.00
869.97	874.00
870.22	901.00
870.46	857.00
870.71	893.00
870.96	896.00
871.20	901.00
871.45	852.00
871.70	871.00
871.94	902.00
872.19	912.00
872.44	885.00
872.68	877.00
872.93	882.00
873.18	897.00
873.42	868.00
873.67	888.00
873.92	901.00
874.16	878.00
874.41	865.00
874.66	873.00
874.90	896.00
875.15	925.00
875.40	888.00
875.64	872.00
875.89	877.00
876.14	880.00
876.38	874.00
876.63	878.00
876.88	879.00
877.12	877.00
877.37	863.00
877.62	877.00
877.86	875.00
878.11	887.00
878.36	847.00
878.60	878.00
878.85	874.00
879.09	886.00
879.34	869.00
879.59	893.00
879.83	915.00
880.08	932.00
880.33	914.00
880.57	901.00
880.82	896.00
881.07	882.00
881.31	871.00
881.56	874.00
881.80	858.00
882.05	873.00
882.30	846.00
882.54	871.00
882.79	903.00
883.04	945.00
883.28	908.00
883.53	881.00
883.77	882.00
884.02	891.00
884.27	859.00
884.51	864.00
884.76	858.00
885.01	888.00
885.25	845.00
885.50	867.00
885.74	870.00
885.99	904.00
886.24	870.00
886.48	880.00
886.73	897.00
886.98	912.00
887.22	888.00
887.47	888.00
887.71	896.00
887.96	894.00
888.21	869.00
888.45	848.00
888.70	858.00
888.94	907.00
889.19	856.00
889.44	863.00
889.68	873.00
889.93	903.00
890.17	881.00
890.42	859.00
890.67	891.00
890.91	970.00
891.16	875.00
891.40	852.00
891.65	869.00
891.90	907.00
892.14	848.00
892.39	876.00
892.63	892.00
892.88	918.00
893.13	884.00
893.37	851.00
893.62	884.00
893.86	907.00
894.11	857.00
894.36	883.00
894.60	880.00
894.85	880.00
895.09	870.00
895.34	906.00
895.59	886.00
895.83	882.00
896.08	840.00
896.32	861.00
896.57	890.00
896.81	901.00
897.06	861.00
897.31	866.00
897.55	895.00
897.80	874.00
898.04	838.00
898.29	853.00
898.53	873.00
898.78	905.00
899.03	872.00
899.27	862.00
899.52	904.00
899.76	910.00
900.01	850.00
900.25	875.00
900.50	877.00
900.75	920.00
900.99	885.00
901.24	949.00
901.48	885.00
901.73	893.00
901.97	856.00
902.22	892.00
902.47	906.00
902.71	889.00
902.96	846.00
903.20	878.00
903.45	907.00
903.69	876.00
903.94	881.00
904.18	856.00
904.43	882.00
904.68	894.00
904.92	846.00
905.17	862.00
905.41	892.00
905.66	917.00
905.90	894.00
906.15	883.00
906.39	889.00
906.64	900.00
906.88	846.00
907.13	866.00
907.38	901.00
907.62	906.00
907.87	858.00
908.11	882.00
908.36	857.00
908.60	887.00
908.85	835.00
909.09	862.00
909.34	872.00
909.58	882.00
909.83	854.00
910.07	856.00
910.32	918.00
910.56	933.00
910.81	869.00
911.06	893.00
911.30	898.00
911.55	879.00
911.79	853.00
912.04	849.00
912.28	880.00
912.53	914.00
912.77	877.00
913.02	860.00
913.26	880.00
913.51	873.00
913.75	860.00
914.00	852.00
914.24	890.00
914.49	893.00
914.73	859.00
914.98	894.00
915.22	914.00
915.47	890.00
915.71	856.00
915.96	877.00
916.20	897.00
916.45	878.00
916.69	851.00
916.94	856.00
917.18	887.00
917.43	890.00
917.67	866.00
917.92	858.00
918.16	899.00
918.41	891.00
918.65	863.00
918.90	860.00
919.14	847.00
919.39	876.00
919.63	865.00
919.88	864.00
920.12	894.00
920.37	890.00
920.61	854.00
920.86	889.00
921.10	890.00
921.35	858.00
921.59	836.00
921.84	873.00
922.08	901.00
922.33	925.00
922.57	872.00
922.82	859.00
923.06	878.00
923.31	889.00
923.55	837.00
923.80	881.00
924.04	865.00
924.29	897.00
924.53	852.00
924.78	879.00
925.02	879.00
925.27	884.00
925.51	874.00
925.76	871.00
926.00	879.00
926.25	898.00
926.49	854.00
926.73	881.00
926.98	898.00
927.22	916.00
927.47	896.00
927.71	878.00
927.96	895.00
928.20	890.00
928.45	882.00
928.69	913.00
928.94	901.00
929.18	885.00
929.43	880.00
929.67	884.00
929.91	896.00
930.16	903.00
930.40	841.00
930.65	830.00
930.89	862.00
931.14	904.00
931.38	865.00
931.63	882.00
931.87	894.00
932.12	905.00
932.36	848.00
932.60	866.00
932.85	896.00
933.09	874.00
933.34	844.00
933.58	887.00
933.83	874.00
934.07	905.00
934.32	874.00
934.56	901.00
934.80	940.00
935.05	924.00
935.29	878.00
935.54	892.00
935.78	888.00
936.03	886.00
936.27	845.00
936.52	860.00
936.76	870.00
937.00	880.00
937.25	861.00
937.49	899.00
937.74	905.00
937.98	909.00
938.23	860.00
938.47	866.00
938.71	893.00
938.96	904.00
939.20	866.00
939.45	865.00
939.69	875.00
939.94	890.00
940.18	834.00
940.42	873.00
940.67	900.00
940.91	878.00
941.16	860.00
941.40	865.00
941.64	897.00
941.89	897.00
942.13	844.00
942.38	881.00
942.62	941.00
942.87	904.00
943.11	879.00
943.35	867.00
943.60	904.00
943.84	935.00
944.09	870.00
944.33	892.00
944.57	910.00
944.82	889.00
945.06	870.00
945.31	886.00
945.55	874.00
945.79	902.00
946.04	876.00
946.28	884.00
946.53	884.00
946.77	917.00
947.01	838.00
947.26	877.00
947.50	879.00
947.75	889.00
947.99	871.00
948.23	872.00
948.48	882.00
948.72	881.00
948.97	863.00
949.21	865.00
949.45	888.00
949.70	916.00
949.94	881.00
950.18	898.00
950.43	889.00
950.67	888.00
950.92	854.00
951.16	849.00
951.40	859.00
951.65	885.00
951.89	882.00
952.13	868.00
952.38	888.00
952.62	888.00
952.87	866.00
953.11	888.00
953.35	897.00
953.60	883.00
953.84	811.00
954.08	832.00
954.33	878.00
954.57	901.00
954.82	874.00
955.06	865.00
955.30	867.00
955.55	880.00
955.79	879.00
956.03	874.00
956.28	858.00
956.52	869.00
956.76	864.00
957.01	883.00
957.25	883.00
957.50	887.00
957.74	858.00
957.98	872.00
958.23	895.00
958.47	895.00
958.71	876.00
958.96	883.00
959.20	905.00
959.44	896.00
959.69	861.00
959.93	869.00
960.17	896.00
960.42	925.00
960.66	887.00
960.90	889.00
961.15	863.00
961.39	875.00
961.64	845.00
961.88	840.00
962.12	876.00
962.37	891.00
962.61	858.00
962.85	860.00
963.10	893.00
963.34	887.00
963.58	846.00
963.83	873.00
964.07	898.00
964.31	897.00
964.56	876.00
964.80	874.00
965.04	879.00
965.29	883.00
965.53	851.00
965.77	864.00
966.02	840.00
966.26	869.00
966.50	832.00
966.74	877.00
966.99	898.00
967.23	895.00
967.47	871.00
967.72	882.00
967.96	890.00
968.20	884.00
968.45	859.00
968.69	862.00
968.93	874.00
969.18	892.00
969.42	884.00
969.66	897.00
969.91	890.00
970.15	910.00
970.39	856.00
970.64	878.00
970.88	887.00
971.12	902.00
971.36	871.00
971.61	865.00
971.85	883.00
972.09	883.00
972.34	862.00
972.58	868.00
972.82	886.00
973.07	913.00
973.31	853.00
973.55	867.00
973.79	888.00
974.04	918.00
974.28	881.00
974.52	861.00
974.77	867.00
975.01	894.00
975.25	870.00
975.50	876.00
975.74	891.00
975.98	904.00
976.22	873.00
976.47	858.00
976.71	874.00
976.95	905.00
977.20	886.00
977.44	867.00
977.68	879.00
977.92	886.00
978.17	864.00
978.41	866.00
978.65	888.00
978.90	898.00
979.14	897.00
979.38	896.00
979.62	875.00
979.87	867.00
980.11	842.00
980.35	888.00
980.59	878.00
980.84	890.00
981.08	872.00
981.32	866.00
981.57	876.00
981.81	897.00
982.05	884.00
982.29	860.00
982.54	872.00
982.78	880.00
983.02	856.00
983.26	863.00
983.51	902.00
983.75	907.00
983.99	845.00
984.23	889.00
984.48	892.00
984.72	893.00
984.96	849.00
985.20	866.00
985.45	944.00
985.69	914.00
985.93	885.00
986.17	908.00
986.42	887.00
986.66	904.00
986.90	840.00
987.14	863.00
987.39	881.00
987.63	870.00
987.87	850.00
988.11	855.00
988.36	880.00
988.60	886.00
988.84	891.00
989.08	859.00
989.33	903.00
989.57	900.00
989.81	846.00
990.05	853.00
990.30	860.00
990.54	860.00
990.78	852.00
991.02	863.00
991.27	880.00
991.51	880.00
991.75	862.00
991.99	886.00
992.23	875.00
992.48	865.00
992.72	847.00
992.96	854.00
993.20	862.00
993.45	893.00
993.69	902.00
993.93	857.00
994.17	883.00
994.41	892.00
994.66	842.00
994.90	862.00
995.14	914.00
995.38	896.00
995.63	878.00
995.87	876.00
996.11	912.00
996.35	904.00
996.59	845.00
996.84	862.00
997.08	893.00
997.32	874.00
997.56	869.00
997.80	837.00
998.05	854.00
998.29	863.00
998.53	855.00
998.77	880.00
999.01	909.00
999.26	904.00
999.50	865.00
999.74	844.00
999.98	883.00
1000.22	897.00
1000.47	842.00
1000.71	857.00
1000.95	896.00
1001.19	904.00
1001.43	874.00
1001.68	877.00
1001.92	884.00
1002.16	873.00
1002.40	840.00
1002.64	862.00
1002.89	871.00
1003.13	885.00
1003.37	893.00
1003.61	856.00
1003.85	883.00
1004.10	874.00
1004.34	865.00
1004.58	860.00
1004.82	895.00
1005.06	882.00
1005.30	869.00
1005.55	870.00
1005.79	897.00
1006.03	892.00
1006.27	872.00
1006.51	868.00
1006.76	877.00
1007.00	911.00
1007.24	867.00
1007.48	876.00
1007.72	925.00
1007.96	907.00
1008.21	871.00
1008.45	882.00
1008.69	898.00
1008.93	912.00
1009.17	882.00
1009.41	882.00
1009.66	900.00
1009.90	878.00
1010.14	860.00
1010.38	881.00
1010.62	904.00
1010.86	907.00
1011.10	868.00
1011.35	874.00
1011.59	883.00
1011.83	868.00
1012.07	845.00
1012.31	880.00
1012.55	873.00
1012.80	884.00
1013.04	878.00
1013.28	892.00
1013.52	883.00
1013.76	901.00
1014.00	851.00
1014.24	875.00
1014.49	898.00
1014.73	917.00
1014.97	919.00
1015.21	891.00
1015.45	910.00
1015.69	889.00
1015.93	881.00
1016.18	876.00
1016.42	914.00
1016.66	903.00
1016.90	872.00
1017.14	859.00
1017.38	866.00
1017.62	892.00
1017.87	875.00
1018.11	866.00
1018.35	888.00
1018.59	897.00
1018.83	851.00
1019.07	874.00
1019.31	910.00
1019.55	919.00
1019.80	876.00
1020.04	889.00
1020.28	883.00
1020.52	889.00
1020.76	837.00
1021.00	833.00
1021.24	857.00
1021.48	862.00
1021.73	866.00
1021.97	876.00
1022.21	876.00
1022.45	881.00
1022.69	862.00
1022.93	868.00
1023.17	900.00
1023.41	916.00
1023.65	874.00
1023.90	908.00
1024.14	918.00
1024.38	880.00
1024.62	849.00
1024.86	879.00
1025.10	883.00
1025.34	866.00
1025.58	856.00
1025.82	861.00
1026.07	910.00
1026.31	898.00
1026.55	865.00
1026.79	861.00
1027.03	881.00
1027.27	889.00
1027.51	825.00
1027.75	835.00
1027.99	842.00
1028.23	889.00
1028.47	873.00
1028.72	862.00
1028.96	875.00
1029.20	891.00
1029.44	886.00
1029.68	892.00
1029.92	904.00
1030.16	903.00
1030.40	843.00
1030.64	865.00
1030.88	876.00
1031.12	880.00
1031.37	848.00
1031.61	879.00
1031.85	902.00
1032.09	905.00
1032.33	869.00
1032.57	902.00
1032.81	880.00
1033.05	893.00
1033.29	879.00
1033.53	863.00
1033.77	928.00
1034.01	908.00
1034.25	877.00
1034.50	878.00
1034.74	881.00
1034.98	901.00
1035.22	882.00
1035.46	881.00
1035.70	900.00
1035.94	903.00
1036.18	870.00
1036.42	862.00
1036.66	863.00
1036.90	885.00
1037.14	846.00
1037.38	873.00
1037.62	881.00
1037.86	870.00
1038.10	865.00
1038.35	887.00
1038.59	899.00
1038.83	900.00
1039.07	876.00
1039.31	888.00
1039.55	881.00
1039.79	897.00
1040.03	840.00
1040.27	840.00
1040.51	887.00
1040.75	913.00
1040.99	882.00
1041.23	883.00
1041.47	879.00
1041.71	901.00
1041.95	875.00
1042.19	870.00
1042.43	916.00
1042.67	918.00
1042.91	858.00
1043.15	867.00
1043.39	909.00
1043.64	885.00
1043.88	853.00
1044.12	879.00
1044.36	944.00
1044.60	916.00
1044.84	892.00
1045.08	882.00
1045.32	894.00
1045.56	907.00
1045.80	885.00
1046.04	875.00
1046.28	905.00
1046.52	901.00
1046.76	855.00
1047.00	845.00
1047.24	898.00
1047.48	883.00
1047.72	872.00
1047.96	878.00
1048.20	891.00
1048.44	875.00
1048.68	847.00
1048.92	881.00
1049.16	872.00
1049.40	885.00
1049.64	865.00
1049.88	869.00
1050.12	906.00
1050.36	920.00
1050.60	878.00
1050.84	879.00
1051.08	875.00
1051.32	881.00
1051.56	870.00
1051.80	870.00
1052.04	865.00
1052.28	911.00
1052.52	858.00
1052.76	841.00
1053.00	874.00
1053.24	888.00
1053.48	846.00
1053.72	873.00
1053.96	882.00
1054.20	881.00
1054.44	870.00
1054.68	887.00
1054.92	909.00
1055.16	871.00
1055.40	863.00
1055.64	872.00
1055.88	908.00
1056.12	914.00
1056.36	845.00
1056.60	857.00
1056.84	905.00
1057.08	891.00
1057.32	862.00
1057.56	865.00
1057.80	875.00
1058.04	891.00
1058.28	847.00
1058.52	865.00
1058.76	899.00
1059.00	912.00
1059.24	852.00
1059.48	856.00
1059.72	897.00
1059.96	905.00
1060.20	879.00
1060.44	890.00
1060.68	887.00
1060.92	873.00
1061.16	830.00
1061.40	848.00
1061.64	894.00
1061.88	878.00
1062.11	875.00
1062.35	851.00
1062.59	864.00
1062.83	903.00
1063.07	875.00
1063.31	857.00
1063.55	865.00
1063.79	892.00
1064.03	874.00
1064.27	856.00
1064.51	889.00
1064.75	890.00
1064.99	851.00
1065.23	864.00
1065.47	862.00
1065.71	894.00
1065.95	857.00
1066.19	876.00
1066.43	900.00
1066.67	899.00
1066.91	886.00
1067.15	889.00
1067.38	882.00
1067.62	897.00
1067.86	860.00
1068.10	873.00
1068.34	920.00
1068.58	914.00
1068.82	854.00
1069.06	843.00
1069.30	894.00
1069.54	903.00
1069.78	896.00
1070.02	889.00
1070.26	907.00
1070.50	914.00
1070.74	871.00
1070.98	902.00
1071.21	901.00
1071.45	885.00
1071.69	840.00
1071.93	863.00
1072.17	877.00
1072.41	899.00
1072.65	880.00
1072.89	903.00
1073.13	883.00
1073.37	872.00
1073.61	856.00
1073.85	874.00
1074.09	868.00
1074.32	882.00
1074.56	870.00
1074.80	955.00
1075.04	1167.00
1075.28	973.00
1075.52	851.00
1075.76	876.00
1076.00	906.00
1076.24	909.00
1076.48	887.00
1076.72	889.00
1076.96	923.00
1077.19	903.00
1077.43	851.00
1077.67	886.00
1077.91	893.00
1078.15	875.00
1078.39	869.00
1078.63	875.00
1078.87	877.00
1079.11	902.00
1079.35	858.00
1079.58	853.00
1079.82	868.00
1080.06	877.00
1080.30	863.00
1080.54	887.00
1080.78	916.00
1081.02	880.00
1081.26	880.00
1081.50	903.00
1081.74	900.00
1081.97	918.00
1082.21	873.00
1082.45	886.00
1082.69	893.00
1082.93	877.00
1083.17	877.00
1083.41	859.00
1083.65	905.00
1083.88	926.00
1084.12	889.00
1084.36	871.00
1084.60	884.00
1084.84	901.00
1085.08	837.00
1085.32	867.00
1085.56	914.00
1085.80	890.00
1086.03	846.00
1086.27	844.00
1086.51	877.00
1086.75	893.00
1086.99	852.00
1087.23	846.00
1087.47	868.00
1087.70	874.00
1087.94	878.00
1088.18	889.00
1088.42	931.00
1088.66	900.00
1088.90	843.00
1089.14	853.00
1089.38	884.00
1089.61	897.00
1089.85	873.00
1090.09	858.00
1090.33	911.00
1090.57	899.00
1090.81	834.00
1091.05	866.00
1091.28	889.00
1091.52	893.00
1091.76	861.00
1092.00	859.00
1092.24	884.00
1092.48	918.00
1092.71	850.00
1092.95	879.00
1093.19	907.00
1093.43	900.00
1093.67	871.00
1093.91	890.00
1094.15	900.00
1094.38	901.00
1094.62	848.00
1094.86	851.00
1095.10	869.00
1095.34	873.00
1095.58	848.00
1095.81	876.00
1096.05	905.00
1096.29	915.00
1096.53	836.00
1096.77	873.00
1097.01	877.00
1097.24	897.00
1097.48	856.00
1097.72	885.00
1097.96	884.00
1098.20	897.00
1098.44	860.00
1098.67	831.00
1098.91	901.00
1099.15	876.00
1099.39	843.00
1099.63	868.00
1099.86	903.00
1100.10	893.00
1100.34	866.00
1100.58	861.00
1100.82	894.00
1101.06	884.00
1101.29	848.00
1101.53	874.00
1101.77	891.00
1102.01	888.00
1102.25	854.00
1102.48	888.00
1102.72	930.00
1102.96	899.00
1103.20	842.00
1103.44	865.00
1103.67	876.00
1103.91	884.00
1104.15	831.00
1104.39	852.00
1104.63	877.00
1104.86	862.00
1105.10	839.00
1105.34	888.00
1105.58	869.00
1105.82	862.00
1106.05	871.00
1106.29	875.00
1106.53	869.00
1106.77	922.00
1107.01	853.00
1107.24	875.00
1107.48	921.00
1107.72	889.00
1107.96	842.00
1108.20	867.00
1108.43	875.00
1108.67	865.00
1108.91	866.00
1109.15	872.00
1109.39	883.00
1109.62	870.00
1109.86	849.00
1110.10	858.00
1110.34	919.00
1110.57	942.00
1110.81	875.00
1111.05	891.00
1111.29	914.00
1111.53	932.00
1111.76	861.00
1112.00	912.00
1112.24	923.00
1112.48	890.00
1112.71	844.00
1112.95	868.00
1113.19	901.00
1113.43	894.00
1113.66	832.00
1113.90	872.00
1114.14	885.00
1114.38	899.00
1114.62	845.00
1114.85	884.00
1115.09	902.00
1115.33	926.00
1115.57	876.00
1115.80	862.00
1116.04	874.00
1116.28	884.00
1116.52	879.00
1116.75	876.00
1116.99	902.00
1117.23	925.00
1117.47	896.00
1117.70	902.00
1117.94	944.00
1118.18	872.00
1118.42	863.00
1118.65	885.00
1118.89	906.00
1119.13	891.00
1119.37	848.00
1119.60	876.00
1119.84	904.00
>>>>>End Processed Spectral Data<<<<<
