SpectraSuite Data File
++++++++++++++++++++++++++++++++++++
Date: Fri Dec 06 15:50:21 CET 2024
User: student
Dark Spectrum Present: No
Reference Spectrum Present: No
Number of Sampled Component Spectra: 1
Spectrometers: HR4C155
Integration Time (usec): 100000 (HR4C155)
Spectra Averaged: 1 (HR4C155)
Boxcar Smoothing: 0 (HR4C155)
Correct for Electrical Dark: No (HR4C155)
Strobe/Lamp Enabled: No (HR4C155)
Correct for Detector Non-linearity: No (HR4C155)
Correct for Stray Light: No (HR4C155)
Number of Pixels in Processed Spectrum: 3648
>>>>>Begin Processed Spectral Data<<<<<
195.39	695.00
195.66	695.00
195.93	695.00
196.20	661.00
196.46	702.00
196.73	829.00
197.00	845.00
197.27	852.00
197.54	874.00
197.81	871.00
198.08	859.00
198.35	882.00
198.61	887.00
198.88	857.00
199.15	850.00
199.42	872.00
199.69	883.00
199.96	865.00
200.23	872.00
200.49	871.00
200.76	899.00
201.03	899.00
201.30	879.00
201.57	921.00
201.84	941.00
202.11	886.00
202.38	908.00
202.64	926.00
202.91	934.00
203.18	863.00
203.45	935.00
203.72	997.00
203.99	934.00
204.25	927.00
204.52	932.00
204.79	939.00
205.06	948.00
205.33	893.00
205.60	900.00
205.87	931.00
206.13	915.00
206.40	892.00
206.67	898.00
206.94	938.00
207.21	952.00
207.48	931.00
207.75	915.00
208.01	945.00
208.28	946.00
208.55	884.00
208.82	910.00
209.09	907.00
209.36	946.00
209.62	935.00
209.89	932.00
210.16	946.00
210.43	962.00
210.70	881.00
210.97	906.00
211.23	939.00
211.50	953.00
211.77	900.00
212.04	911.00
212.31	914.00
212.58	942.00
212.84	913.00
213.11	907.00
213.38	880.00
213.65	918.00
213.92	896.00
214.18	906.00
214.45	951.00
214.72	947.00
214.99	886.00
215.26	914.00
215.53	904.00
215.79	932.00
216.06	939.00
216.33	937.00
216.60	905.00
216.87	935.00
217.13	856.00
217.40	891.00
217.67	932.00
217.94	957.00
218.21	894.00
218.48	932.00
218.74	983.00
219.01	935.00
219.28	886.00
219.55	881.00
219.82	927.00
220.08	939.00
220.35	897.00
220.62	916.00
220.89	944.00
221.16	990.00
221.42	925.00
221.69	917.00
221.96	923.00
222.23	955.00
222.50	955.00
222.76	954.00
223.03	917.00
223.30	918.00
223.57	914.00
223.84	889.00
224.10	893.00
224.37	923.00
224.64	888.00
224.91	912.00
225.18	949.00
225.44	937.00
225.71	909.00
225.98	921.00
226.25	947.00
226.51	945.00
226.78	899.00
227.05	895.00
227.32	917.00
227.59	928.00
227.85	910.00
228.12	920.00
228.39	952.00
228.66	953.00
228.92	937.00
229.19	918.00
229.46	928.00
229.73	911.00
230.00	883.00
230.26	921.00
230.53	935.00
230.80	937.00
231.07	876.00
231.33	882.00
231.60	919.00
231.87	941.00
232.14	912.00
232.41	937.00
232.67	926.00
232.94	926.00
233.21	887.00
233.48	911.00
233.74	942.00
234.01	916.00
234.28	879.00
234.55	897.00
234.81	903.00
235.08	969.00
235.35	916.00
235.62	900.00
235.88	912.00
236.15	936.00
236.42	915.00
236.69	922.00
236.95	938.00
237.22	913.00
237.49	899.00
237.76	903.00
238.02	944.00
238.29	956.00
238.56	901.00
238.83	901.00
239.09	904.00
239.36	942.00
239.63	898.00
239.90	916.00
240.16	952.00
240.43	999.00
240.70	924.00
240.97	896.00
241.23	925.00
241.50	940.00
241.77	898.00
242.04	895.00
242.30	891.00
242.57	913.00
242.84	890.00
243.11	918.00
243.37	893.00
243.64	941.00
243.91	892.00
244.18	900.00
244.44	893.00
244.71	892.00
244.98	893.00
245.24	888.00
245.51	915.00
245.78	946.00
246.05	886.00
246.31	900.00
246.58	931.00
246.85	910.00
247.12	896.00
247.38	927.00
247.65	933.00
247.92	932.00
248.18	906.00
248.45	902.00
248.72	912.00
248.99	929.00
249.25	882.00
249.52	896.00
249.79	943.00
250.05	958.00
250.32	914.00
250.59	892.00
250.86	909.00
251.12	911.00
251.39	880.00
251.66	910.00
251.92	935.00
252.19	940.00
252.46	868.00
252.73	914.00
252.99	945.00
253.26	957.00
253.53	909.00
253.79	918.00
254.06	920.00
254.33	906.00
254.60	876.00
254.86	904.00
255.13	938.00
255.40	960.00
255.66	919.00
255.93	912.00
256.20	930.00
256.46	941.00
256.73	918.00
257.00	927.00
257.26	937.00
257.53	953.00
257.80	926.00
258.07	911.00
258.33	971.00
258.60	940.00
258.87	891.00
259.13	916.00
259.40	895.00
259.67	954.00
259.93	912.00
260.20	917.00
260.47	930.00
260.73	903.00
261.00	886.00
261.27	901.00
261.53	934.00
261.80	925.00
262.07	875.00
262.34	903.00
262.60	901.00
262.87	931.00
263.14	881.00
263.40	916.00
263.67	914.00
263.94	900.00
264.20	898.00
264.47	869.00
264.74	879.00
265.00	901.00
265.27	863.00
265.54	892.00
265.80	924.00
266.07	941.00
266.34	888.00
266.60	899.00
266.87	923.00
267.14	936.00
267.40	898.00
267.67	875.00
267.94	923.00
268.20	916.00
268.47	872.00
268.74	880.00
269.00	901.00
269.27	886.00
269.54	862.00
269.80	888.00
270.07	940.00
270.33	923.00
270.60	891.00
270.87	930.00
271.13	912.00
271.40	925.00
271.67	857.00
271.93	846.00
272.20	907.00
272.47	912.00
272.73	870.00
273.00	898.00
273.27	908.00
273.53	944.00
273.80	898.00
274.07	884.00
274.33	894.00
274.60	929.00
274.86	905.00
275.13	902.00
275.40	898.00
275.66	950.00
275.93	896.00
276.20	897.00
276.46	908.00
276.73	898.00
277.00	886.00
277.26	907.00
277.53	936.00
277.79	921.00
278.06	896.00
278.33	937.00
278.59	924.00
278.86	906.00
279.13	897.00
279.39	894.00
279.66	942.00
279.93	946.00
280.19	887.00
280.46	882.00
280.72	893.00
280.99	937.00
281.26	876.00
281.52	897.00
281.79	920.00
282.05	924.00
282.32	896.00
282.59	910.00
282.85	925.00
283.12	927.00
283.39	892.00
283.65	918.00
283.92	926.00
284.18	946.00
284.45	911.00
284.72	913.00
284.98	917.00
285.25	904.00
285.51	893.00
285.78	915.00
286.05	923.00
286.31	912.00
286.58	861.00
286.84	880.00
287.11	909.00
287.38	917.00
287.64	923.00
287.91	893.00
288.17	935.00
288.44	935.00
288.71	875.00
288.97	901.00
289.24	935.00
289.50	913.00
289.77	906.00
290.04	883.00
290.30	893.00
290.57	934.00
290.83	876.00
291.10	886.00
291.37	927.00
291.63	920.00
291.90	916.00
292.16	909.00
292.43	916.00
292.70	904.00
292.96	859.00
293.23	893.00
293.49	903.00
293.76	938.00
294.02	893.00
294.29	908.00
294.56	917.00
294.82	920.00
295.09	875.00
295.35	877.00
295.62	948.00
295.89	953.00
296.15	903.00
296.42	894.00
296.68	919.00
296.95	903.00
297.21	902.00
297.48	902.00
297.75	929.00
298.01	950.00
298.28	905.00
298.54	917.00
298.81	918.00
299.07	920.00
299.34	874.00
299.61	909.00
299.87	929.00
300.14	903.00
300.40	893.00
300.67	902.00
300.93	928.00
301.20	968.00
301.46	894.00
301.73	904.00
302.00	934.00
302.26	909.00
302.53	906.00
302.79	893.00
303.06	913.00
303.32	964.00
303.59	897.00
303.85	893.00
304.12	902.00
304.39	900.00
304.65	899.00
304.92	900.00
305.18	921.00
305.45	925.00
305.71	890.00
305.98	910.00
306.24	897.00
306.51	895.00
306.77	879.00
307.04	893.00
307.31	944.00
307.57	952.00
307.84	862.00
308.10	902.00
308.37	894.00
308.63	908.00
308.90	882.00
309.16	908.00
309.43	943.00
309.69	915.00
309.96	904.00
310.22	889.00
310.49	918.00
310.76	921.00
311.02	877.00
311.29	897.00
311.55	908.00
311.82	918.00
312.08	904.00
312.35	914.00
312.61	938.00
312.88	955.00
313.14	908.00
313.41	868.00
313.67	865.00
313.94	907.00
314.20	910.00
314.47	924.00
314.73	905.00
315.00	884.00
315.26	878.00
315.53	914.00
315.79	919.00
316.06	923.00
316.32	889.00
316.59	905.00
316.85	913.00
317.12	931.00
317.39	858.00
317.65	893.00
317.92	897.00
318.18	927.00
318.45	888.00
318.71	939.00
318.98	926.00
319.24	921.00
319.51	894.00
319.77	898.00
320.04	900.00
320.30	901.00
320.57	902.00
320.83	883.00
321.10	880.00
321.36	902.00
321.63	878.00
321.89	880.00
322.16	948.00
322.42	941.00
322.69	875.00
322.95	899.00
323.22	921.00
323.48	926.00
323.75	881.00
324.01	897.00
324.28	925.00
324.54	932.00
324.80	888.00
325.07	921.00
325.33	926.00
325.60	916.00
325.86	859.00
326.13	877.00
326.39	900.00
326.66	893.00
326.92	838.00
327.19	878.00
327.45	939.00
327.72	935.00
327.98	884.00
328.25	880.00
328.51	908.00
328.78	927.00
329.04	893.00
329.31	904.00
329.57	917.00
329.84	903.00
330.10	881.00
330.37	903.00
330.63	942.00
330.89	961.00
331.16	894.00
331.42	903.00
331.69	943.00
331.95	911.00
332.22	914.00
332.48	934.00
332.75	921.00
333.01	897.00
333.28	886.00
333.54	886.00
333.81	904.00
334.07	917.00
334.34	894.00
334.60	916.00
334.86	956.00
335.13	957.00
335.39	915.00
335.66	888.00
335.92	942.00
336.19	947.00
336.45	868.00
336.72	877.00
336.98	901.00
337.24	908.00
337.51	869.00
337.77	880.00
338.04	906.00
338.30	920.00
338.57	865.00
338.83	891.00
339.10	923.00
339.36	922.00
339.63	882.00
339.89	854.00
340.15	901.00
340.42	934.00
340.68	914.00
340.95	912.00
341.21	910.00
341.48	934.00
341.74	883.00
342.00	866.00
342.27	913.00
342.53	904.00
342.80	879.00
343.06	886.00
343.33	908.00
343.59	942.00
343.85	876.00
344.12	904.00
344.38	961.00
344.65	941.00
344.91	888.00
345.18	895.00
345.44	906.00
345.70	894.00
345.97	858.00
346.23	886.00
346.50	922.00
346.76	926.00
347.03	904.00
347.29	901.00
347.55	885.00
347.82	900.00
348.08	875.00
348.35	898.00
348.61	966.00
348.87	919.00
349.14	875.00
349.40	880.00
349.67	916.00
349.93	906.00
350.20	879.00
350.46	927.00
350.72	948.00
350.99	904.00
351.25	896.00
351.52	888.00
351.78	905.00
352.04	910.00
352.31	885.00
352.57	897.00
352.84	891.00
353.10	910.00
353.36	916.00
353.63	886.00
353.89	900.00
354.16	915.00
354.42	890.00
354.68	898.00
354.95	937.00
355.21	915.00
355.48	873.00
355.74	901.00
356.00	939.00
356.27	948.00
356.53	893.00
356.80	893.00
357.06	932.00
357.32	947.00
357.59	939.00
357.85	919.00
358.11	955.00
358.38	944.00
358.64	886.00
358.91	886.00
359.17	913.00
359.43	925.00
359.70	916.00
359.96	897.00
360.22	934.00
360.49	913.00
360.75	901.00
361.02	869.00
361.28	900.00
361.54	925.00
361.81	874.00
362.07	892.00
362.33	900.00
362.60	896.00
362.86	876.00
363.13	912.00
363.39	938.00
363.65	936.00
363.92	842.00
364.18	878.00
364.44	900.00
364.71	900.00
364.97	874.00
365.24	874.00
365.50	934.00
365.76	941.00
366.03	900.00
366.29	923.00
366.55	928.00
366.82	911.00
367.08	862.00
367.34	904.00
367.61	927.00
367.87	922.00
368.13	904.00
368.40	889.00
368.66	952.00
368.93	932.00
369.19	853.00
369.45	862.00
369.72	914.00
369.98	901.00
370.24	878.00
370.51	894.00
370.77	902.00
371.03	903.00
371.30	882.00
371.56	920.00
371.82	939.00
372.09	915.00
372.35	912.00
372.61	903.00
372.88	906.00
373.14	919.00
373.40	906.00
373.67	900.00
373.93	910.00
374.19	933.00
374.46	885.00
374.72	877.00
374.98	931.00
375.25	922.00
375.51	905.00
375.77	937.00
376.04	930.00
376.30	931.00
376.56	881.00
376.83	883.00
377.09	937.00
377.35	925.00
377.62	902.00
377.88	887.00
378.14	897.00
378.41	908.00
378.67	882.00
378.93	897.00
379.20	936.00
379.46	904.00
379.72	884.00
379.99	874.00
380.25	897.00
380.51	894.00
380.77	874.00
381.04	907.00
381.30	923.00
381.56	943.00
381.83	907.00
382.09	882.00
382.35	903.00
382.62	921.00
382.88	917.00
383.14	900.00
383.41	922.00
383.67	903.00
383.93	902.00
384.20	907.00
384.46	909.00
384.72	931.00
384.98	884.00
385.25	899.00
385.51	930.00
385.77	914.00
386.04	875.00
386.30	883.00
386.56	943.00
386.82	972.00
387.09	900.00
387.35	915.00
387.61	988.00
387.88	938.00
388.14	905.00
388.40	903.00
388.67	904.00
388.93	908.00
389.19	898.00
389.45	883.00
389.72	910.00
389.98	937.00
390.24	904.00
390.51	892.00
390.77	923.00
391.03	925.00
391.29	877.00
391.56	892.00
391.82	916.00
392.08	948.00
392.35	909.00
392.61	906.00
392.87	921.00
393.13	938.00
393.40	871.00
393.66	892.00
393.92	917.00
394.18	920.00
394.45	879.00
394.71	891.00
394.97	894.00
395.24	893.00
395.50	869.00
395.76	904.00
396.02	917.00
396.29	914.00
396.55	867.00
396.81	842.00
397.07	890.00
397.34	889.00
397.60	868.00
397.86	870.00
398.12	895.00
398.39	944.00
398.65	890.00
398.91	878.00
399.17	896.00
399.44	866.00
399.70	830.00
399.96	889.00
400.22	905.00
400.49	931.00
400.75	885.00
401.01	885.00
401.27	891.00
401.54	935.00
401.80	886.00
402.06	880.00
402.32	924.00
402.59	910.00
402.85	879.00
403.11	900.00
403.37	914.00
403.64	954.00
403.90	896.00
404.16	906.00
404.42	896.00
404.69	885.00
404.95	877.00
405.21	858.00
405.47	889.00
405.74	929.00
406.00	869.00
406.26	866.00
406.52	895.00
406.79	936.00
407.05	889.00
407.31	903.00
407.57	898.00
407.83	908.00
408.10	864.00
408.36	875.00
408.62	895.00
408.88	890.00
409.15	858.00
409.41	839.00
409.67	884.00
409.93	930.00
410.20	904.00
410.46	884.00
410.72	885.00
410.98	911.00
411.24	885.00
411.51	893.00
411.77	890.00
412.03	912.00
412.29	905.00
412.55	913.00
412.82	903.00
413.08	901.00
413.34	887.00
413.60	901.00
413.87	910.00
414.13	923.00
414.39	875.00
414.65	885.00
414.91	909.00
415.18	877.00
415.44	865.00
415.70	870.00
415.96	903.00
416.22	912.00
416.49	883.00
416.75	894.00
417.01	916.00
417.27	908.00
417.53	888.00
417.80	900.00
418.06	924.00
418.32	927.00
418.58	879.00
418.84	869.00
419.11	914.00
419.37	922.00
419.63	883.00
419.89	890.00
420.15	902.00
420.42	913.00
420.68	884.00
420.94	897.00
421.20	904.00
421.46	914.00
421.72	910.00
421.99	899.00
422.25	941.00
422.51	922.00
422.77	888.00
423.03	908.00
423.30	912.00
423.56	910.00
423.82	910.00
424.08	901.00
424.34	935.00
424.60	916.00
424.87	872.00
425.13	867.00
425.39	889.00
425.65	895.00
425.91	879.00
426.18	913.00
426.44	914.00
426.70	881.00
426.96	849.00
427.22	861.00
427.48	889.00
427.75	902.00
428.01	858.00
428.27	900.00
428.53	940.00
428.79	885.00
429.05	869.00
429.32	890.00
429.58	935.00
429.84	892.00
430.10	898.00
430.36	895.00
430.62	934.00
430.88	920.00
431.15	884.00
431.41	894.00
431.67	912.00
431.93	888.00
432.19	853.00
432.45	878.00
432.72	909.00
432.98	911.00
433.24	904.00
433.50	984.00
433.76	899.00
434.02	883.00
434.28	866.00
434.55	895.00
434.81	914.00
435.07	920.00
435.33	852.00
435.59	863.00
435.85	893.00
436.11	922.00
436.38	863.00
436.64	879.00
436.90	896.00
437.16	886.00
437.42	867.00
437.68	872.00
437.94	896.00
438.21	917.00
438.47	904.00
438.73	908.00
438.99	921.00
439.25	915.00
439.51	882.00
439.77	908.00
440.03	910.00
440.30	925.00
440.56	882.00
440.82	916.00
441.08	950.00
441.34	921.00
441.60	889.00
441.86	902.00
442.12	917.00
442.39	907.00
442.65	870.00
442.91	882.00
443.17	897.00
443.43	921.00
443.69	888.00
443.95	876.00
444.21	888.00
444.47	915.00
444.74	862.00
445.00	888.00
445.26	901.00
445.52	908.00
445.78	885.00
446.04	890.00
446.30	933.00
446.56	919.00
446.82	870.00
447.09	889.00
447.35	927.00
447.61	924.00
447.87	892.00
448.13	900.00
448.39	943.00
448.65	936.00
448.91	864.00
449.17	874.00
449.43	886.00
449.70	897.00
449.96	850.00
450.22	865.00
450.48	917.00
450.74	952.00
451.00	909.00
451.26	881.00
451.52	907.00
451.78	887.00
452.04	867.00
452.31	901.00
452.57	904.00
452.83	882.00
453.09	871.00
453.35	889.00
453.61	916.00
453.87	909.00
454.13	920.00
454.39	903.00
454.65	951.00
454.91	954.00
455.17	873.00
455.44	876.00
455.70	914.00
455.96	898.00
456.22	872.00
456.48	882.00
456.74	914.00
457.00	882.00
457.26	831.00
457.52	873.00
457.78	876.00
458.04	908.00
458.30	864.00
458.56	875.00
458.82	890.00
459.09	875.00
459.35	822.00
459.61	856.00
459.87	897.00
460.13	922.00
460.39	880.00
460.65	861.00
460.91	916.00
461.17	879.00
461.43	852.00
461.69	867.00
461.95	917.00
462.21	897.00
462.47	887.00
462.73	924.00
462.99	936.00
463.26	926.00
463.52	875.00
463.78	859.00
464.04	873.00
464.30	900.00
464.56	876.00
464.82	881.00
465.08	935.00
465.34	948.00
465.60	895.00
465.86	892.00
466.12	890.00
466.38	881.00
466.64	867.00
466.90	888.00
467.16	910.00
467.42	904.00
467.68	853.00
467.94	891.00
468.20	925.00
468.46	904.00
468.72	876.00
468.98	893.00
469.25	916.00
469.51	872.00
469.77	904.00
470.03	895.00
470.29	891.00
470.55	900.00
470.81	887.00
471.07	899.00
471.33	929.00
471.59	923.00
471.85	884.00
472.11	907.00
472.37	919.00
472.63	901.00
472.89	893.00
473.15	890.00
473.41	910.00
473.67	874.00
473.93	835.00
474.19	857.00
474.45	876.00
474.71	904.00
474.97	860.00
475.23	864.00
475.49	875.00
475.75	876.00
476.01	872.00
476.27	906.00
476.53	920.00
476.79	906.00
477.05	868.00
477.31	881.00
477.57	915.00
477.83	909.00
478.09	841.00
478.35	876.00
478.61	927.00
478.87	906.00
479.13	866.00
479.39	906.00
479.65	900.00
479.91	921.00
480.17	897.00
480.43	918.00
480.69	901.00
480.95	902.00
481.21	877.00
481.47	906.00
481.73	901.00
481.99	891.00
482.25	865.00
482.51	855.00
482.77	910.00
483.03	894.00
483.29	878.00
483.55	883.00
483.81	918.00
484.07	919.00
484.33	854.00
484.59	863.00
484.85	924.00
485.11	925.00
485.37	881.00
485.63	880.00
485.89	894.00
486.15	885.00
486.41	872.00
486.67	880.00
486.93	884.00
487.19	887.00
487.45	861.00
487.71	863.00
487.97	904.00
488.23	918.00
488.49	874.00
488.75	874.00
489.01	892.00
489.27	934.00
489.53	886.00
489.79	870.00
490.05	895.00
490.31	908.00
490.57	901.00
490.83	930.00
491.08	891.00
491.34	868.00
491.60	850.00
491.86	906.00
492.12	948.00
492.38	928.00
492.64	854.00
492.90	849.00
493.16	900.00
493.42	881.00
493.68	855.00
493.94	904.00
494.20	888.00
494.46	895.00
494.72	873.00
494.98	885.00
495.24	874.00
495.50	885.00
495.76	883.00
496.02	909.00
496.28	898.00
496.54	906.00
496.80	872.00
497.05	848.00
497.31	917.00
497.57	908.00
497.83	873.00
498.09	891.00
498.35	916.00
498.61	906.00
498.87	895.00
499.13	891.00
499.39	898.00
499.65	904.00
499.91	889.00
500.17	860.00
500.43	952.00
500.69	972.00
500.95	863.00
501.20	908.00
501.46	910.00
501.72	906.00
501.98	924.00
502.24	917.00
502.50	932.00
502.76	890.00
503.02	870.00
503.28	888.00
503.54	956.00
503.80	941.00
504.06	909.00
504.32	936.00
504.58	905.00
504.83	888.00
505.09	853.00
505.35	899.00
505.61	882.00
505.87	895.00
506.13	881.00
506.39	884.00
506.65	912.00
506.91	939.00
507.17	893.00
507.43	892.00
507.68	899.00
507.94	906.00
508.20	863.00
508.46	857.00
508.72	914.00
508.98	938.00
509.24	868.00
509.50	902.00
509.76	896.00
510.02	912.00
510.28	854.00
510.53	884.00
510.79	917.00
511.05	916.00
511.31	880.00
511.57	885.00
511.83	900.00
512.09	916.00
512.35	860.00
512.61	891.00
512.87	910.00
513.12	917.00
513.38	847.00
513.64	874.00
513.90	910.00
514.16	922.00
514.42	889.00
514.68	901.00
514.94	918.00
515.20	920.00
515.45	870.00
515.71	866.00
515.97	896.00
516.23	887.00
516.49	857.00
516.75	880.00
517.01	887.00
517.27	873.00
517.53	869.00
517.78	887.00
518.04	895.00
518.30	872.00
518.56	867.00
518.82	912.00
519.08	940.00
519.34	877.00
519.60	877.00
519.85	893.00
520.11	916.00
520.37	906.00
520.63	885.00
520.89	903.00
521.15	887.00
521.41	879.00
521.66	889.00
521.92	888.00
522.18	927.00
522.44	935.00
522.70	907.00
522.96	861.00
523.22	911.00
523.48	899.00
523.73	874.00
523.99	874.00
524.25	935.00
524.51	912.00
524.77	853.00
525.03	859.00
525.29	895.00
525.54	902.00
525.80	872.00
526.06	874.00
526.32	878.00
526.58	889.00
526.84	868.00
527.09	869.00
527.35	874.00
527.61	898.00
527.87	877.00
528.13	895.00
528.39	886.00
528.65	893.00
528.90	842.00
529.16	863.00
529.42	871.00
529.68	867.00
529.94	859.00
530.20	882.00
530.45	869.00
530.71	884.00
530.97	847.00
531.23	873.00
531.49	909.00
531.75	897.00
532.00	859.00
532.26	853.00
532.52	898.00
532.78	882.00
533.04	857.00
533.30	853.00
533.55	890.00
533.81	891.00
534.07	853.00
534.33	887.00
534.59	906.00
534.85	904.00
535.10	870.00
535.36	857.00
535.62	901.00
535.88	898.00
536.14	851.00
536.39	873.00
536.65	905.00
536.91	913.00
537.17	874.00
537.43	897.00
537.69	936.00
537.94	915.00
538.20	867.00
538.46	900.00
538.72	910.00
538.98	903.00
539.23	861.00
539.49	867.00
539.75	935.00
540.01	909.00
540.27	891.00
540.52	918.00
540.78	911.00
541.04	922.00
541.30	874.00
541.56	849.00
541.81	915.00
542.07	962.00
542.33	891.00
542.59	883.00
542.85	884.00
543.10	886.00
543.36	863.00
543.62	894.00
543.88	903.00
544.14	901.00
544.39	877.00
544.65	884.00
544.91	915.00
545.17	904.00
545.43	863.00
545.68	871.00
545.94	886.00
546.20	909.00
546.46	872.00
546.71	868.00
546.97	895.00
547.23	887.00
547.49	857.00
547.75	886.00
548.00	907.00
548.26	914.00
548.52	860.00
548.78	861.00
549.03	883.00
549.29	898.00
549.55	871.00
549.81	881.00
550.07	912.00
550.32	905.00
550.58	866.00
550.84	904.00
551.10	894.00
551.35	886.00
551.61	866.00
551.87	895.00
552.13	906.00
552.39	898.00
552.64	867.00
552.90	885.00
553.16	905.00
553.42	882.00
553.67	851.00
553.93	863.00
554.19	908.00
554.45	937.00
554.70	904.00
554.96	864.00
555.22	903.00
555.48	921.00
555.73	882.00
555.99	884.00
556.25	911.00
556.51	893.00
556.76	857.00
557.02	885.00
557.28	909.00
557.54	886.00
557.79	879.00
558.05	895.00
558.31	894.00
558.57	925.00
558.82	871.00
559.08	856.00
559.34	850.00
559.60	895.00
559.85	871.00
560.11	873.00
560.37	875.00
560.63	882.00
560.88	868.00
561.14	872.00
561.40	914.00
561.66	869.00
561.91	854.00
562.17	870.00
562.43	908.00
562.68	940.00
562.94	891.00
563.20	882.00
563.46	914.00
563.71	913.00
563.97	866.00
564.23	894.00
564.49	947.00
564.74	906.00
565.00	870.00
565.26	877.00
565.51	896.00
565.77	903.00
566.03	863.00
566.29	894.00
566.54	885.00
566.80	891.00
567.06	875.00
567.31	919.00
567.57	920.00
567.83	886.00
568.09	882.00
568.34	882.00
568.60	896.00
568.86	919.00
569.11	891.00
569.37	861.00
569.63	889.00
569.89	906.00
570.14	848.00
570.40	863.00
570.66	880.00
570.91	877.00
571.17	874.00
571.43	908.00
571.69	921.00
571.94	927.00
572.20	860.00
572.46	872.00
572.71	923.00
572.97	913.00
573.23	861.00
573.48	869.00
573.74	892.00
574.00	912.00
574.26	857.00
574.51	877.00
574.77	903.00
575.03	899.00
575.28	867.00
575.54	855.00
575.80	888.00
576.05	915.00
576.31	854.00
576.57	860.00
576.82	890.00
577.08	888.00
577.34	870.00
577.59	877.00
577.85	925.00
578.11	883.00
578.37	866.00
578.62	867.00
578.88	910.00
579.14	915.00
579.39	869.00
579.65	882.00
579.91	897.00
580.16	920.00
580.42	876.00
580.68	881.00
580.93	911.00
581.19	902.00
581.45	865.00
581.70	897.00
581.96	897.00
582.22	904.00
582.47	874.00
582.73	878.00
582.99	910.00
583.24	919.00
583.50	861.00
583.76	880.00
584.01	894.00
584.27	917.00
584.53	887.00
584.78	896.00
585.04	888.00
585.30	902.00
585.55	889.00
585.81	873.00
586.07	919.00
586.32	932.00
586.58	867.00
586.83	877.00
587.09	900.00
587.35	901.00
587.60	861.00
587.86	868.00
588.12	881.00
588.37	915.00
588.63	877.00
588.89	902.00
589.14	904.00
589.40	914.00
589.66	873.00
589.91	890.00
590.17	901.00
590.43	857.00
590.68	854.00
590.94	885.00
591.19	922.00
591.45	891.00
591.71	859.00
591.96	875.00
592.22	897.00
592.48	916.00
592.73	855.00
592.99	881.00
593.25	902.00
593.50	902.00
593.76	866.00
594.01	878.00
594.27	899.00
594.53	892.00
594.78	858.00
595.04	875.00
595.30	905.00
595.55	893.00
595.81	842.00
596.06	900.00
596.32	937.00
596.58	902.00
596.83	876.00
597.09	887.00
597.35	900.00
597.60	892.00
597.86	866.00
598.11	892.00
598.37	912.00
598.63	891.00
598.88	875.00
599.14	883.00
599.39	937.00
599.65	901.00
599.91	839.00
600.16	868.00
600.42	905.00
600.67	916.00
600.93	866.00
601.19	888.00
601.44	963.00
601.70	919.00
601.95	876.00
602.21	908.00
602.47	900.00
602.72	912.00
602.98	877.00
603.23	918.00
603.49	924.00
603.75	921.00
604.00	880.00
604.26	889.00
604.51	894.00
604.77	927.00
605.03	874.00
605.28	867.00
605.54	935.00
605.79	939.00
606.05	850.00
606.31	878.00
606.56	911.00
606.82	910.00
607.07	890.00
607.33	900.00
607.59	917.00
607.84	893.00
608.10	857.00
608.35	890.00
608.61	908.00
608.86	923.00
609.12	902.00
609.38	921.00
609.63	954.00
609.89	909.00
610.14	862.00
610.40	889.00
610.65	909.00
610.91	928.00
611.17	878.00
611.42	900.00
611.68	937.00
611.93	940.00
612.19	903.00
612.44	935.00
612.70	941.00
612.96	904.00
613.21	860.00
613.47	885.00
613.72	911.00
613.98	942.00
614.23	898.00
614.49	929.00
614.75	937.00
615.00	926.00
615.26	916.00
615.51	906.00
615.77	921.00
616.02	932.00
616.28	896.00
616.53	914.00
616.79	936.00
617.05	930.00
617.30	903.00
617.56	919.00
617.81	955.00
618.07	945.00
618.32	926.00
618.58	970.00
618.83	993.00
619.09	980.00
619.34	923.00
619.60	933.00
619.86	965.00
620.11	981.00
620.37	936.00
620.62	937.00
620.88	965.00
621.13	977.00
621.39	957.00
621.64	959.00
621.90	989.00
622.15	960.00
622.41	954.00
622.66	990.00
622.92	1001.00
623.18	1002.00
623.43	971.00
623.69	996.00
623.94	1008.00
624.20	1029.00
624.45	992.00
624.71	990.00
624.96	1002.00
625.22	1050.00
625.47	1020.00
625.73	1019.00
625.98	1036.00
626.24	1049.00
626.49	1038.00
626.75	1045.00
627.00	1069.00
627.26	1100.00
627.51	1053.00
627.77	1082.00
628.02	1088.00
628.28	1101.00
628.53	1081.00
628.79	1116.00
629.05	1131.00
629.30	1089.00
629.56	1099.00
629.81	1159.00
630.07	1127.00
630.32	1128.00
630.58	1146.00
630.83	1146.00
631.09	1148.00
631.34	1155.00
631.60	1108.00
631.85	1115.00
632.11	1172.00
632.36	1211.00
632.62	1185.00
632.87	1207.00
633.13	1211.00
633.38	1224.00
633.64	1158.00
633.89	1174.00
634.15	1229.00
634.40	1285.00
634.66	1283.00
634.91	1288.00
635.17	1273.00
635.42	1309.00
635.68	1313.00
635.93	1342.00
636.18	1354.00
636.44	1361.00
636.69	1379.00
636.95	1418.00
637.20	1447.00
637.46	1392.00
637.71	1344.00
637.97	1370.00
638.22	1379.00
638.48	1390.00
638.73	1330.00
638.99	1302.00
639.24	1339.00
639.50	1326.00
639.75	1301.00
640.01	1342.00
640.26	1416.00
640.52	1434.00
640.77	1329.00
641.03	1308.00
641.28	1330.00
641.54	1334.00
641.79	1334.00
642.04	1389.00
642.30	1400.00
642.55	1347.00
642.81	1293.00
643.06	1303.00
643.32	1339.00
643.57	1338.00
643.83	1309.00
644.08	1262.00
644.34	1257.00
644.59	1231.00
644.85	1161.00
645.10	1159.00
645.35	1195.00
645.61	1188.00
645.86	1134.00
646.12	1138.00
646.37	1161.00
646.63	1151.00
646.88	1058.00
647.14	1069.00
647.39	1076.00
647.65	1118.00
647.90	1075.00
648.15	1091.00
648.41	1054.00
648.66	1053.00
648.92	1017.00
649.17	1028.00
649.43	1029.00
649.68	1008.00
649.94	989.00
650.19	971.00
650.44	979.00
650.70	978.00
650.95	966.00
651.21	997.00
651.46	1008.00
651.72	991.00
651.97	942.00
652.23	952.00
652.48	965.00
652.73	970.00
652.99	947.00
653.24	947.00
653.50	966.00
653.75	945.00
654.01	925.00
654.26	949.00
654.51	944.00
654.77	962.00
655.02	937.00
655.28	923.00
655.53	936.00
655.79	937.00
656.04	915.00
656.29	913.00
656.55	917.00
656.80	937.00
657.06	883.00
657.31	904.00
657.56	908.00
657.82	905.00
658.07	888.00
658.33	912.00
658.58	916.00
658.84	935.00
659.09	881.00
659.34	903.00
659.60	920.00
659.85	918.00
660.11	881.00
660.36	894.00
660.61	911.00
660.87	887.00
661.12	870.00
661.38	891.00
661.63	908.00
661.88	903.00
662.14	904.00
662.39	880.00
662.65	920.00
662.90	937.00
663.15	870.00
663.41	872.00
663.66	915.00
663.92	931.00
664.17	866.00
664.42	902.00
664.68	921.00
664.93	892.00
665.19	865.00
665.44	879.00
665.69	876.00
665.95	905.00
666.20	865.00
666.45	901.00
666.71	906.00
666.96	913.00
667.22	846.00
667.47	867.00
667.72	881.00
667.98	909.00
668.23	862.00
668.49	903.00
668.74	917.00
668.99	898.00
669.25	869.00
669.50	872.00
669.75	898.00
670.01	899.00
670.26	860.00
670.52	873.00
670.77	914.00
671.02	882.00
671.28	867.00
671.53	887.00
671.78	913.00
672.04	918.00
672.29	881.00
672.54	881.00
672.80	912.00
673.05	904.00
673.31	857.00
673.56	902.00
673.81	925.00
674.07	912.00
674.32	894.00
674.57	885.00
674.83	900.00
675.08	906.00
675.33	866.00
675.59	889.00
675.84	906.00
676.09	889.00
676.35	884.00
676.60	875.00
676.86	893.00
677.11	906.00
677.36	885.00
677.62	896.00
677.87	933.00
678.12	958.00
678.38	874.00
678.63	892.00
678.88	932.00
679.14	931.00
679.39	863.00
679.64	891.00
679.90	876.00
680.15	924.00
680.40	913.00
680.66	887.00
680.91	914.00
681.16	915.00
681.42	862.00
681.67	878.00
681.92	902.00
682.18	916.00
682.43	867.00
682.68	892.00
682.94	913.00
683.19	873.00
683.44	845.00
683.70	884.00
683.95	910.00
684.20	887.00
684.46	873.00
684.71	904.00
684.96	882.00
685.22	890.00
685.47	880.00
685.72	901.00
685.98	908.00
686.23	873.00
686.48	867.00
686.74	907.00
686.99	941.00
687.24	910.00
687.50	864.00
687.75	865.00
688.00	878.00
688.25	889.00
688.51	883.00
688.76	912.00
689.01	867.00
689.27	881.00
689.52	850.00
689.77	874.00
690.03	874.00
690.28	886.00
690.53	878.00
690.79	904.00
691.04	899.00
691.29	892.00
691.54	842.00
691.80	892.00
692.05	885.00
692.30	882.00
692.56	876.00
692.81	905.00
693.06	890.00
693.32	868.00
693.57	866.00
693.82	905.00
694.07	911.00
694.33	914.00
694.58	870.00
694.83	901.00
695.09	892.00
695.34	906.00
695.59	891.00
695.84	882.00
696.10	923.00
696.35	926.00
696.60	859.00
696.86	869.00
697.11	894.00
697.36	894.00
697.61	858.00
697.87	887.00
698.12	885.00
698.37	886.00
698.63	893.00
698.88	867.00
699.13	890.00
699.38	904.00
699.64	846.00
699.89	866.00
700.14	875.00
700.39	881.00
700.65	870.00
700.90	895.00
701.15	894.00
701.40	915.00
701.66	868.00
701.91	879.00
702.16	877.00
702.42	888.00
702.67	839.00
702.92	862.00
703.17	885.00
703.43	885.00
703.68	872.00
703.93	905.00
704.18	926.00
704.44	893.00
704.69	876.00
704.94	897.00
705.19	889.00
705.45	904.00
705.70	890.00
705.95	882.00
706.20	880.00
706.46	898.00
706.71	867.00
706.96	866.00
707.21	894.00
707.47	896.00
707.72	878.00
707.97	912.00
708.22	918.00
708.48	909.00
708.73	862.00
708.98	853.00
709.23	875.00
709.49	876.00
709.74	852.00
709.99	872.00
710.24	899.00
710.50	887.00
710.75	890.00
711.00	898.00
711.25	916.00
711.50	893.00
711.76	862.00
712.01	876.00
712.26	883.00
712.51	898.00
712.77	875.00
713.02	875.00
713.27	862.00
713.52	873.00
713.78	869.00
714.03	880.00
714.28	884.00
714.53	888.00
714.78	874.00
715.04	895.00
715.29	905.00
715.54	900.00
715.79	862.00
716.05	901.00
716.30	912.00
716.55	901.00
716.80	877.00
717.05	908.00
717.31	900.00
717.56	891.00
717.81	876.00
718.06	850.00
718.31	866.00
718.57	894.00
718.82	875.00
719.07	902.00
719.32	887.00
719.57	898.00
719.83	854.00
720.08	887.00
720.33	869.00
720.58	857.00
720.83	844.00
721.09	911.00
721.34	903.00
721.59	913.00
721.84	862.00
722.09	874.00
722.35	892.00
722.60	873.00
722.85	848.00
723.10	897.00
723.35	878.00
723.61	892.00
723.86	895.00
724.11	892.00
724.36	886.00
724.61	880.00
724.87	857.00
725.12	862.00
725.37	870.00
725.62	869.00
725.87	863.00
726.12	860.00
726.38	865.00
726.63	894.00
726.88	875.00
727.13	904.00
727.38	881.00
727.64	892.00
727.89	866.00
728.14	868.00
728.39	860.00
728.64	905.00
728.89	869.00
729.15	881.00
729.40	910.00
729.65	914.00
729.90	872.00
730.15	890.00
730.40	888.00
730.66	893.00
730.91	860.00
731.16	882.00
731.41	902.00
731.66	886.00
731.91	852.00
732.17	880.00
732.42	906.00
732.67	876.00
732.92	850.00
733.17	896.00
733.42	901.00
733.68	909.00
733.93	869.00
734.18	878.00
734.43	859.00
734.68	878.00
734.93	868.00
735.18	877.00
735.44	888.00
735.69	891.00
735.94	845.00
736.19	873.00
736.44	879.00
736.69	931.00
736.95	863.00
737.20	884.00
737.45	881.00
737.70	886.00
737.95	897.00
738.20	903.00
738.45	886.00
738.70	864.00
738.96	864.00
739.21	903.00
739.46	914.00
739.71	918.00
739.96	881.00
740.21	912.00
740.46	965.00
740.72	939.00
740.97	880.00
741.22	908.00
741.47	867.00
741.72	894.00
741.97	866.00
742.22	878.00
742.47	882.00
742.73	876.00
742.98	849.00
743.23	868.00
743.48	858.00
743.73	897.00
743.98	869.00
744.23	876.00
744.48	892.00
744.74	874.00
744.99	854.00
745.24	901.00
745.49	889.00
745.74	907.00
745.99	864.00
746.24	880.00
746.49	885.00
746.74	877.00
747.00	875.00
747.25	891.00
747.50	844.00
747.75	856.00
748.00	833.00
748.25	859.00
748.50	886.00
748.75	908.00
749.00	903.00
749.26	923.00
749.51	893.00
749.76	910.00
750.01	876.00
750.26	896.00
750.51	913.00
750.76	902.00
751.01	860.00
751.26	886.00
751.51	894.00
751.77	907.00
752.02	880.00
752.27	873.00
752.52	882.00
752.77	901.00
753.02	857.00
753.27	876.00
753.52	882.00
753.77	883.00
754.02	870.00
754.27	883.00
754.52	870.00
754.78	886.00
755.03	881.00
755.28	909.00
755.53	888.00
755.78	882.00
756.03	843.00
756.28	881.00
756.53	901.00
756.78	892.00
757.03	869.00
757.28	895.00
757.53	877.00
757.79	852.00
758.04	836.00
758.29	902.00
758.54	914.00
758.79	910.00
759.04	858.00
759.29	860.00
759.54	875.00
759.79	875.00
760.04	880.00
760.29	874.00
760.54	890.00
760.79	889.00
761.04	867.00
761.29	877.00
761.55	861.00
761.80	890.00
762.05	844.00
762.30	883.00
762.55	888.00
762.80	882.00
763.05	885.00
763.30	905.00
763.55	929.00
763.80	910.00
764.05	843.00
764.30	886.00
764.55	918.00
764.80	915.00
765.05	869.00
765.30	887.00
765.55	873.00
765.80	878.00
766.05	853.00
766.30	886.00
766.56	885.00
766.81	902.00
767.06	881.00
767.31	874.00
767.56	861.00
767.81	862.00
768.06	855.00
768.31	889.00
768.56	893.00
768.81	944.00
769.06	871.00
769.31	887.00
769.56	891.00
769.81	902.00
770.06	852.00
770.31	876.00
770.56	883.00
770.81	872.00
771.06	846.00
771.31	885.00
771.56	888.00
771.81	897.00
772.06	851.00
772.31	904.00
772.56	898.00
772.81	905.00
773.06	859.00
773.31	900.00
773.56	899.00
773.81	869.00
774.06	850.00
774.31	873.00
774.56	900.00
774.81	913.00
775.06	882.00
775.31	884.00
775.56	890.00
775.81	877.00
776.06	857.00
776.31	895.00
776.56	904.00
776.82	908.00
777.07	865.00
777.32	876.00
777.57	882.00
777.82	918.00
778.07	862.00
778.32	870.00
778.57	881.00
778.82	903.00
779.07	869.00
779.32	886.00
779.57	852.00
779.82	875.00
780.07	863.00
780.32	882.00
780.56	880.00
780.81	912.00
781.06	845.00
781.31	862.00
781.56	901.00
781.81	906.00
782.06	866.00
782.31	900.00
782.56	892.00
782.81	929.00
783.06	872.00
783.31	885.00
783.56	873.00
783.81	901.00
784.06	868.00
784.31	874.00
784.56	879.00
784.81	914.00
785.06	876.00
785.31	889.00
785.56	850.00
785.81	864.00
786.06	839.00
786.31	885.00
786.56	863.00
786.81	870.00
787.06	879.00
787.31	868.00
787.56	863.00
787.81	861.00
788.06	855.00
788.31	881.00
788.56	860.00
788.81	894.00
789.06	850.00
789.31	885.00
789.56	867.00
789.81	871.00
790.06	842.00
790.31	896.00
790.56	878.00
790.80	875.00
791.05	849.00
791.30	851.00
791.55	866.00
791.80	881.00
792.05	865.00
792.30	865.00
792.55	868.00
792.80	885.00
793.05	874.00
793.30	884.00
793.55	899.00
793.80	904.00
794.05	868.00
794.30	888.00
794.55	891.00
794.80	904.00
795.05	867.00
795.30	881.00
795.54	864.00
795.79	891.00
796.04	844.00
796.29	888.00
796.54	877.00
796.79	898.00
797.04	854.00
797.29	875.00
797.54	900.00
797.79	899.00
798.04	870.00
798.29	874.00
798.54	851.00
798.79	869.00
799.04	848.00
799.29	866.00
799.53	880.00
799.78	872.00
800.03	869.00
800.28	872.00
800.53	889.00
800.78	918.00
801.03	872.00
801.28	892.00
801.53	869.00
801.78	902.00
802.03	863.00
802.28	878.00
802.52	907.00
802.77	916.00
803.02	896.00
803.27	886.00
803.52	839.00
803.77	896.00
804.02	891.00
804.27	909.00
804.52	902.00
804.77	907.00
805.02	882.00
805.27	905.00
805.51	881.00
805.76	902.00
806.01	860.00
806.26	875.00
806.51	874.00
806.76	923.00
807.01	892.00
807.26	862.00
807.51	892.00
807.76	868.00
808.00	861.00
808.25	876.00
808.50	903.00
808.75	882.00
809.00	845.00
809.25	877.00
809.50	872.00
809.75	902.00
810.00	881.00
810.24	877.00
810.49	844.00
810.74	871.00
810.99	864.00
811.24	887.00
811.49	897.00
811.74	899.00
811.99	844.00
812.24	871.00
812.48	869.00
812.73	872.00
812.98	839.00
813.23	856.00
813.48	868.00
813.73	883.00
813.98	833.00
814.23	865.00
814.47	869.00
814.72	873.00
814.97	852.00
815.22	894.00
815.47	873.00
815.72	878.00
815.97	831.00
816.22	859.00
816.46	868.00
816.71	891.00
816.96	872.00
817.21	896.00
817.46	879.00
817.71	905.00
817.96	866.00
818.20	857.00
818.45	865.00
818.70	898.00
818.95	849.00
819.20	889.00
819.45	890.00
819.70	884.00
819.94	858.00
820.19	871.00
820.44	881.00
820.69	912.00
820.94	879.00
821.19	891.00
821.44	947.00
821.68	952.00
821.93	870.00
822.18	898.00
822.43	904.00
822.68	906.00
822.93	869.00
823.17	884.00
823.42	897.00
823.67	866.00
823.92	844.00
824.17	867.00
824.42	873.00
824.67	899.00
824.91	873.00
825.16	873.00
825.41	881.00
825.66	889.00
825.91	857.00
826.16	877.00
826.40	878.00
826.65	895.00
826.90	855.00
827.15	876.00
827.40	886.00
827.65	923.00
827.89	845.00
828.14	873.00
828.39	879.00
828.64	884.00
828.89	841.00
829.13	861.00
829.38	852.00
829.63	869.00
829.88	856.00
830.13	869.00
830.38	858.00
830.62	868.00
830.87	852.00
831.12	888.00
831.37	911.00
831.62	908.00
831.86	862.00
832.11	877.00
832.36	857.00
832.61	891.00
832.86	869.00
833.10	907.00
833.35	889.00
833.60	905.00
833.85	866.00
834.10	895.00
834.35	906.00
834.59	912.00
834.84	860.00
835.09	887.00
835.34	872.00
835.59	880.00
835.83	877.00
836.08	894.00
836.33	893.00
836.58	897.00
836.83	869.00
837.07	872.00
837.32	887.00
837.57	893.00
837.82	856.00
838.06	882.00
838.31	912.00
838.56	903.00
838.81	860.00
839.06	875.00
839.30	884.00
839.55	898.00
839.80	863.00
840.05	884.00
840.30	900.00
840.54	910.00
840.79	857.00
841.04	875.00
841.29	902.00
841.53	902.00
841.78	864.00
842.03	857.00
842.28	843.00
842.53	859.00
842.77	866.00
843.02	891.00
843.27	868.00
843.52	881.00
843.76	875.00
844.01	887.00
844.26	873.00
844.51	901.00
844.75	863.00
845.00	849.00
845.25	882.00
845.50	913.00
845.75	872.00
845.99	877.00
846.24	880.00
846.49	896.00
846.74	858.00
846.98	866.00
847.23	880.00
847.48	892.00
847.73	843.00
847.97	874.00
848.22	908.00
848.47	910.00
848.72	859.00
848.96	866.00
849.21	895.00
849.46	877.00
849.71	861.00
849.95	867.00
850.20	862.00
850.45	900.00
850.70	858.00
850.94	896.00
851.19	875.00
851.44	870.00
851.69	844.00
851.93	887.00
852.18	909.00
852.43	902.00
852.68	881.00
852.92	902.00
853.17	923.00
853.42	910.00
853.66	876.00
853.91	902.00
854.16	890.00
854.41	934.00
854.65	872.00
854.90	883.00
855.15	884.00
855.40	904.00
855.64	877.00
855.89	875.00
856.14	874.00
856.39	884.00
856.63	876.00
856.88	880.00
857.13	877.00
857.37	886.00
857.62	837.00
857.87	841.00
858.12	873.00
858.36	896.00
858.61	823.00
858.86	860.00
859.10	899.00
859.35	898.00
859.60	853.00
859.85	840.00
860.09	852.00
860.34	888.00
860.59	862.00
860.83	893.00
861.08	883.00
861.33	898.00
861.58	868.00
861.82	856.00
862.07	871.00
862.32	892.00
862.56	860.00
862.81	877.00
863.06	883.00
863.30	887.00
863.55	870.00
863.80	885.00
864.05	886.00
864.29	883.00
864.54	852.00
864.79	881.00
865.03	885.00
865.28	898.00
865.53	863.00
865.77	842.00
866.02	888.00
866.27	911.00
866.51	881.00
866.76	868.00
867.01	857.00
867.26	884.00
867.50	858.00
867.75	853.00
868.00	873.00
868.24	883.00
868.49	855.00
868.74	856.00
868.98	859.00
869.23	896.00
869.48	890.00
869.72	896.00
869.97	870.00
870.22	898.00
870.46	866.00
870.71	874.00
870.96	873.00
871.20	902.00
871.45	851.00
871.70	881.00
871.94	908.00
872.19	901.00
872.44	886.00
872.68	884.00
872.93	877.00
873.18	896.00
873.42	858.00
873.67	877.00
873.92	897.00
874.16	883.00
874.41	866.00
874.66	884.00
874.90	898.00
875.15	921.00
875.40	892.00
875.64	884.00
875.89	889.00
876.14	902.00
876.38	873.00
876.63	865.00
876.88	890.00
877.12	882.00
877.37	839.00
877.62	885.00
877.86	881.00
878.11	877.00
878.36	834.00
878.60	870.00
878.85	880.00
879.09	884.00
879.34	872.00
879.59	889.00
879.83	905.00
880.08	928.00
880.33	882.00
880.57	900.00
880.82	897.00
881.07	900.00
881.31	873.00
881.56	881.00
881.80	870.00
882.05	903.00
882.30	837.00
882.54	856.00
882.79	904.00
883.04	932.00
883.28	892.00
883.53	872.00
883.77	875.00
884.02	894.00
884.27	864.00
884.51	878.00
884.76	864.00
885.01	890.00
885.25	862.00
885.50	875.00
885.74	858.00
885.99	906.00
886.24	863.00
886.48	868.00
886.73	908.00
886.98	922.00
887.22	876.00
887.47	884.00
887.71	886.00
887.96	885.00
888.21	862.00
888.45	878.00
888.70	862.00
888.94	905.00
889.19	856.00
889.44	875.00
889.68	899.00
889.93	910.00
890.17	876.00
890.42	864.00
890.67	912.00
890.91	974.00
891.16	861.00
891.40	859.00
891.65	872.00
891.90	903.00
892.14	845.00
892.39	881.00
892.63	894.00
892.88	925.00
893.13	877.00
893.37	850.00
893.62	863.00
893.86	913.00
894.11	877.00
894.36	875.00
894.60	865.00
894.85	874.00
895.09	873.00
895.34	909.00
895.59	897.00
895.83	892.00
896.08	849.00
896.32	849.00
896.57	876.00
896.81	889.00
897.06	858.00
897.31	856.00
897.55	880.00
897.80	881.00
898.04	842.00
898.29	869.00
898.53	874.00
898.78	899.00
899.03	862.00
899.27	869.00
899.52	893.00
899.76	918.00
900.01	868.00
900.25	892.00
900.50	883.00
900.75	887.00
900.99	862.00
901.24	936.00
901.48	889.00
901.73	906.00
901.97	872.00
902.22	878.00
902.47	894.00
902.71	887.00
902.96	854.00
903.20	882.00
903.45	904.00
903.69	894.00
903.94	885.00
904.18	863.00
904.43	890.00
904.68	896.00
904.92	853.00
905.17	881.00
905.41	892.00
905.66	909.00
905.90	923.00
906.15	898.00
906.39	892.00
906.64	902.00
906.88	859.00
907.13	860.00
907.38	908.00
907.62	926.00
907.87	867.00
908.11	886.00
908.36	862.00
908.60	890.00
908.85	816.00
909.09	872.00
909.34	877.00
909.58	897.00
909.83	859.00
910.07	876.00
910.32	923.00
910.56	932.00
910.81	844.00
911.06	888.00
911.30	900.00
911.55	881.00
911.79	856.00
912.04	867.00
912.28	865.00
912.53	893.00
912.77	891.00
913.02	863.00
913.26	869.00
913.51	882.00
913.75	861.00
914.00	873.00
914.24	873.00
914.49	898.00
914.73	847.00
914.98	869.00
915.22	903.00
915.47	890.00
915.71	872.00
915.96	884.00
916.20	879.00
916.45	868.00
916.69	848.00
916.94	859.00
917.18	878.00
917.43	880.00
917.67	851.00
917.92	857.00
918.16	901.00
918.41	908.00
918.65	854.00
918.90	844.00
919.14	858.00
919.39	881.00
919.63	841.00
919.88	838.00
920.12	899.00
920.37	893.00
920.61	848.00
920.86	883.00
921.10	898.00
921.35	876.00
921.59	850.00
921.84	890.00
922.08	888.00
922.33	913.00
922.57	869.00
922.82	849.00
923.06	877.00
923.31	889.00
923.55	835.00
923.80	878.00
924.04	868.00
924.29	890.00
924.53	853.00
924.78	862.00
925.02	856.00
925.27	872.00
925.51	869.00
925.76	891.00
926.00	885.00
926.25	898.00
926.49	854.00
926.73	884.00
926.98	890.00
927.22	902.00
927.47	878.00
927.71	885.00
927.96	877.00
928.20	884.00
928.45	888.00
928.69	922.00
928.94	892.00
929.18	872.00
929.43	893.00
929.67	890.00
929.91	889.00
930.16	902.00
930.40	860.00
930.65	842.00
930.89	892.00
931.14	931.00
931.38	869.00
931.63	892.00
931.87	890.00
932.12	902.00
932.36	860.00
932.60	871.00
932.85	896.00
933.09	880.00
933.34	848.00
933.58	879.00
933.83	869.00
934.07	917.00
934.32	885.00
934.56	883.00
934.80	904.00
935.05	931.00
935.29	890.00
935.54	876.00
935.78	890.00
936.03	902.00
936.27	826.00
936.52	871.00
936.76	884.00
937.00	882.00
937.25	865.00
937.49	891.00
937.74	902.00
937.98	904.00
938.23	839.00
938.47	847.00
938.71	873.00
938.96	880.00
939.20	833.00
939.45	846.00
939.69	853.00
939.94	893.00
940.18	836.00
940.42	874.00
940.67	862.00
940.91	870.00
941.16	863.00
941.40	847.00
941.64	860.00
941.89	885.00
942.13	858.00
942.38	894.00
942.62	964.00
942.87	919.00
943.11	887.00
943.35	876.00
943.60	897.00
943.84	923.00
944.09	897.00
944.33	891.00
944.57	901.00
944.82	877.00
945.06	863.00
945.31	885.00
945.55	874.00
945.79	900.00
946.04	868.00
946.28	871.00
946.53	878.00
946.77	877.00
947.01	837.00
947.26	884.00
947.50	863.00
947.75	883.00
947.99	865.00
948.23	890.00
948.48	891.00
948.72	900.00
948.97	867.00
949.21	874.00
949.45	883.00
949.70	921.00
949.94	880.00
950.18	897.00
950.43	889.00
950.67	898.00
950.92	859.00
951.16	873.00
951.40	865.00
951.65	886.00
951.89	870.00
952.13	870.00
952.38	883.00
952.62	880.00
952.87	859.00
953.11	892.00
953.35	901.00
953.60	913.00
953.84	837.00
954.08	843.00
954.33	869.00
954.57	895.00
954.82	875.00
955.06	856.00
955.30	871.00
955.55	902.00
955.79	868.00
956.03	868.00
956.28	874.00
956.52	877.00
956.76	869.00
957.01	874.00
957.25	869.00
957.50	888.00
957.74	844.00
957.98	857.00
958.23	889.00
958.47	881.00
958.71	877.00
958.96	904.00
959.20	923.00
959.44	888.00
959.69	861.00
959.93	877.00
960.17	888.00
960.42	894.00
960.66	899.00
960.90	893.00
961.15	884.00
961.39	902.00
961.64	848.00
961.88	854.00
962.12	897.00
962.37	905.00
962.61	858.00
962.85	860.00
963.10	881.00
963.34	884.00
963.58	850.00
963.83	880.00
964.07	874.00
964.31	877.00
964.56	866.00
964.80	867.00
965.04	881.00
965.29	896.00
965.53	853.00
965.77	862.00
966.02	838.00
966.26	855.00
966.50	837.00
966.74	873.00
966.99	915.00
967.23	894.00
967.47	868.00
967.72	875.00
967.96	879.00
968.20	883.00
968.45	854.00
968.69	849.00
968.93	870.00
969.18	880.00
969.42	883.00
969.66	893.00
969.91	884.00
970.15	892.00
970.39	851.00
970.64	888.00
970.88	884.00
971.12	869.00
971.36	868.00
971.61	871.00
971.85	878.00
972.09	890.00
972.34	854.00
972.58	864.00
972.82	878.00
973.07	907.00
973.31	852.00
973.55	865.00
973.79	889.00
974.04	911.00
974.28	886.00
974.52	876.00
974.77	882.00
975.01	894.00
975.25	863.00
975.50	870.00
975.74	886.00
975.98	905.00
976.22	872.00
976.47	859.00
976.71	873.00
976.95	883.00
977.20	891.00
977.44	860.00
977.68	874.00
977.92	891.00
978.17	849.00
978.41	864.00
978.65	899.00
978.90	883.00
979.14	879.00
979.38	886.00
979.62	885.00
979.87	869.00
980.11	852.00
980.35	883.00
980.59	892.00
980.84	889.00
981.08	862.00
981.32	865.00
981.57	890.00
981.81	886.00
982.05	853.00
982.29	862.00
982.54	878.00
982.78	892.00
983.02	867.00
983.26	871.00
983.51	904.00
983.75	913.00
983.99	852.00
984.23	870.00
984.48	876.00
984.72	900.00
984.96	857.00
985.20	866.00
985.45	916.00
985.69	892.00
985.93	882.00
986.17	900.00
986.42	890.00
986.66	890.00
986.90	823.00
987.14	848.00
987.39	869.00
987.63	870.00
987.87	847.00
988.11	848.00
988.36	885.00
988.60	903.00
988.84	886.00
989.08	855.00
989.33	896.00
989.57	904.00
989.81	843.00
990.05	852.00
990.30	867.00
990.54	868.00
990.78	849.00
991.02	852.00
991.27	886.00
991.51	896.00
991.75	856.00
991.99	896.00
992.23	878.00
992.48	867.00
992.72	845.00
992.96	865.00
993.20	873.00
993.45	900.00
993.69	885.00
993.93	842.00
994.17	875.00
994.41	884.00
994.66	854.00
994.90	865.00
995.14	897.00
995.38	897.00
995.63	855.00
995.87	861.00
996.11	924.00
996.35	905.00
996.59	849.00
996.84	853.00
997.08	887.00
997.32	877.00
997.56	862.00
997.80	848.00
998.05	866.00
998.29	876.00
998.53	858.00
998.77	877.00
999.01	911.00
999.26	898.00
999.50	864.00
999.74	857.00
999.98	871.00
1000.22	875.00
1000.47	861.00
1000.71	872.00
1000.95	900.00
1001.19	896.00
1001.43	859.00
1001.68	874.00
1001.92	880.00
1002.16	868.00
1002.40	834.00
1002.64	882.00
1002.89	886.00
1003.13	884.00
1003.37	875.00
1003.61	865.00
1003.85	883.00
1004.10	881.00
1004.34	862.00
1004.58	858.00
1004.82	894.00
1005.06	888.00
1005.30	853.00
1005.55	862.00
1005.79	884.00
1006.03	880.00
1006.27	862.00
1006.51	867.00
1006.76	890.00
1007.00	914.00
1007.24	883.00
1007.48	884.00
1007.72	913.00
1007.96	883.00
1008.21	889.00
1008.45	898.00
1008.69	883.00
1008.93	912.00
1009.17	868.00
1009.41	901.00
1009.66	907.00
1009.90	872.00
1010.14	855.00
1010.38	882.00
1010.62	887.00
1010.86	920.00
1011.10	874.00
1011.35	854.00
1011.59	871.00
1011.83	867.00
1012.07	852.00
1012.31	890.00
1012.55	900.00
1012.80	914.00
1013.04	877.00
1013.28	882.00
1013.52	879.00
1013.76	902.00
1014.00	847.00
1014.24	858.00
1014.49	904.00
1014.73	926.00
1014.97	884.00
1015.21	877.00
1015.45	907.00
1015.69	875.00
1015.93	884.00
1016.18	881.00
1016.42	916.00
1016.66	910.00
1016.90	865.00
1017.14	849.00
1017.38	865.00
1017.62	886.00
1017.87	851.00
1018.11	865.00
1018.35	866.00
1018.59	891.00
1018.83	848.00
1019.07	878.00
1019.31	882.00
1019.55	904.00
1019.80	874.00
1020.04	882.00
1020.28	871.00
1020.52	896.00
1020.76	864.00
1021.00	849.00
1021.24	869.00
1021.48	875.00
1021.73	876.00
1021.97	892.00
1022.21	884.00
1022.45	890.00
1022.69	844.00
1022.93	852.00
1023.17	870.00
1023.41	909.00
1023.65	872.00
1023.90	888.00
1024.14	908.00
1024.38	878.00
1024.62	851.00
1024.86	878.00
1025.10	908.00
1025.34	877.00
1025.58	848.00
1025.82	858.00
1026.07	892.00
1026.31	896.00
1026.55	861.00
1026.79	852.00
1027.03	882.00
1027.27	901.00
1027.51	826.00
1027.75	823.00
1027.99	853.00
1028.23	912.00
1028.47	888.00
1028.72	858.00
1028.96	887.00
1029.20	887.00
1029.44	883.00
1029.68	878.00
1029.92	874.00
1030.16	901.00
1030.40	845.00
1030.64	850.00
1030.88	876.00
1031.12	872.00
1031.37	819.00
1031.61	857.00
1031.85	885.00
1032.09	897.00
1032.33	873.00
1032.57	912.00
1032.81	879.00
1033.05	905.00
1033.29	883.00
1033.53	868.00
1033.77	936.00
1034.01	912.00
1034.25	880.00
1034.50	892.00
1034.74	884.00
1034.98	919.00
1035.22	890.00
1035.46	897.00
1035.70	919.00
1035.94	915.00
1036.18	878.00
1036.42	880.00
1036.66	861.00
1036.90	867.00
1037.14	838.00
1037.38	850.00
1037.62	885.00
1037.86	880.00
1038.10	875.00
1038.35	860.00
1038.59	896.00
1038.83	907.00
1039.07	887.00
1039.31	883.00
1039.55	869.00
1039.79	892.00
1040.03	846.00
1040.27	844.00
1040.51	893.00
1040.75	926.00
1040.99	884.00
1041.23	878.00
1041.47	886.00
1041.71	906.00
1041.95	877.00
1042.19	878.00
1042.43	912.00
1042.67	925.00
1042.91	886.00
1043.15	873.00
1043.39	919.00
1043.64	899.00
1043.88	865.00
1044.12	885.00
1044.36	926.00
1044.60	913.00
1044.84	882.00
1045.08	871.00
1045.32	880.00
1045.56	910.00
1045.80	887.00
1046.04	869.00
1046.28	905.00
1046.52	906.00
1046.76	844.00
1047.00	861.00
1047.24	899.00
1047.48	897.00
1047.72	864.00
1047.96	870.00
1048.20	890.00
1048.44	879.00
1048.68	838.00
1048.92	868.00
1049.16	873.00
1049.40	884.00
1049.64	862.00
1049.88	884.00
1050.12	904.00
1050.36	903.00
1050.60	854.00
1050.84	857.00
1051.08	874.00
1051.32	862.00
1051.56	877.00
1051.80	863.00
1052.04	876.00
1052.28	902.00
1052.52	836.00
1052.76	828.00
1053.00	868.00
1053.24	888.00
1053.48	832.00
1053.72	870.00
1053.96	900.00
1054.20	898.00
1054.44	876.00
1054.68	899.00
1054.92	901.00
1055.16	858.00
1055.40	855.00
1055.64	881.00
1055.88	913.00
1056.12	921.00
1056.36	845.00
1056.60	862.00
1056.84	902.00
1057.08	896.00
1057.32	865.00
1057.56	846.00
1057.80	875.00
1058.04	901.00
1058.28	867.00
1058.52	881.00
1058.76	916.00
1059.00	901.00
1059.24	849.00
1059.48	860.00
1059.72	905.00
1059.96	885.00
1060.20	894.00
1060.44	896.00
1060.68	935.00
1060.92	896.00
1061.16	827.00
1061.40	866.00
1061.64	873.00
1061.88	881.00
1062.11	853.00
1062.35	861.00
1062.59	871.00
1062.83	902.00
1063.07	867.00
1063.31	849.00
1063.55	865.00
1063.79	914.00
1064.03	877.00
1064.27	869.00
1064.51	904.00
1064.75	901.00
1064.99	880.00
1065.23	884.00
1065.47	874.00
1065.71	902.00
1065.95	854.00
1066.19	848.00
1066.43	888.00
1066.67	901.00
1066.91	888.00
1067.15	871.00
1067.38	878.00
1067.62	889.00
1067.86	839.00
1068.10	884.00
1068.34	936.00
1068.58	916.00
1068.82	857.00
1069.06	835.00
1069.30	877.00
1069.54	910.00
1069.78	876.00
1070.02	878.00
1070.26	926.00
1070.50	931.00
1070.74	872.00
1070.98	889.00
1071.21	897.00
1071.45	896.00
1071.69	837.00
1071.93	859.00
1072.17	878.00
1072.41	886.00
1072.65	872.00
1072.89	887.00
1073.13	890.00
1073.37	885.00
1073.61	843.00
1073.85	872.00
1074.09	861.00
1074.32	864.00
1074.56	867.00
1074.80	953.00
1075.04	1163.00
1075.28	993.00
1075.52	872.00
1075.76	876.00
1076.00	892.00
1076.24	891.00
1076.48	874.00
1076.72	878.00
1076.96	916.00
1077.19	909.00
1077.43	873.00
1077.67	897.00
1077.91	890.00
1078.15	866.00
1078.39	857.00
1078.63	862.00
1078.87	867.00
1079.11	889.00
1079.35	863.00
1079.58	861.00
1079.82	886.00
1080.06	877.00
1080.30	857.00
1080.54	894.00
1080.78	916.00
1081.02	891.00
1081.26	863.00
1081.50	883.00
1081.74	910.00
1081.97	906.00
1082.21	853.00
1082.45	886.00
1082.69	881.00
1082.93	872.00
1083.17	866.00
1083.41	857.00
1083.65	901.00
1083.88	923.00
1084.12	891.00
1084.36	900.00
1084.60	905.00
1084.84	906.00
1085.08	849.00
1085.32	874.00
1085.56	900.00
1085.80	894.00
1086.03	882.00
1086.27	856.00
1086.51	884.00
1086.75	906.00
1086.99	874.00
1087.23	858.00
1087.47	899.00
1087.70	902.00
1087.94	869.00
1088.18	879.00
1088.42	943.00
1088.66	917.00
1088.90	849.00
1089.14	868.00
1089.38	884.00
1089.61	893.00
1089.85	857.00
1090.09	844.00
1090.33	905.00
1090.57	917.00
1090.81	835.00
1091.05	872.00
1091.28	908.00
1091.52	907.00
1091.76	859.00
1092.00	861.00
1092.24	897.00
1092.48	929.00
1092.71	872.00
1092.95	893.00
1093.19	901.00
1093.43	888.00
1093.67	841.00
1093.91	874.00
1094.15	879.00
1094.38	894.00
1094.62	857.00
1094.86	853.00
1095.10	870.00
1095.34	884.00
1095.58	855.00
1095.81	871.00
1096.05	914.00
1096.29	922.00
1096.53	843.00
1096.77	865.00
1097.01	888.00
1097.24	910.00
1097.48	852.00
1097.72	892.00
1097.96	896.00
1098.20	898.00
1098.44	845.00
1098.67	834.00
1098.91	897.00
1099.15	899.00
1099.39	850.00
1099.63	864.00
1099.86	880.00
1100.10	879.00
1100.34	871.00
1100.58	863.00
1100.82	891.00
1101.06	895.00
1101.29	865.00
1101.53	876.00
1101.77	890.00
1102.01	864.00
1102.25	863.00
1102.48	889.00
1102.72	921.00
1102.96	894.00
1103.20	844.00
1103.44	875.00
1103.67	886.00
1103.91	886.00
1104.15	832.00
1104.39	860.00
1104.63	876.00
1104.86	879.00
1105.10	849.00
1105.34	878.00
1105.58	875.00
1105.82	870.00
1106.05	857.00
1106.29	876.00
1106.53	892.00
1106.77	914.00
1107.01	865.00
1107.24	889.00
1107.48	926.00
1107.72	899.00
1107.96	842.00
1108.20	860.00
1108.43	874.00
1108.67	873.00
1108.91	857.00
1109.15	853.00
1109.39	872.00
1109.62	891.00
1109.86	845.00
1110.10	856.00
1110.34	930.00
1110.57	944.00
1110.81	871.00
1111.05	876.00
1111.29	910.00
1111.53	935.00
1111.76	878.00
1112.00	911.00
1112.24	914.00
1112.48	900.00
1112.71	829.00
1112.95	869.00
1113.19	904.00
1113.43	882.00
1113.66	835.00
1113.90	884.00
1114.14	900.00
1114.38	909.00
1114.62	850.00
1114.85	900.00
1115.09	910.00
1115.33	938.00
1115.57	873.00
1115.80	860.00
1116.04	884.00
1116.28	868.00
1116.52	848.00
1116.75	850.00
1116.99	888.00
1117.23	907.00
1117.47	888.00
1117.70	914.00
1117.94	945.00
1118.18	881.00
1118.42	857.00
1118.65	896.00
1118.89	908.00
1119.13	887.00
1119.37	854.00
1119.60	871.00
1119.84	902.00
>>>>>End Processed Spectral Data<<<<<
