SpectraSuite Data File
++++++++++++++++++++++++++++++++++++
Date: Fri Dec 06 15:47:53 CET 2024
User: student
Dark Spectrum Present: No
Reference Spectrum Present: No
Number of Sampled Component Spectra: 1
Spectrometers: HR4C155
Integration Time (usec): 100000 (HR4C155)
Spectra Averaged: 1 (HR4C155)
Boxcar Smoothing: 0 (HR4C155)
Correct for Electrical Dark: No (HR4C155)
Strobe/Lamp Enabled: No (HR4C155)
Correct for Detector Non-linearity: No (HR4C155)
Correct for Stray Light: No (HR4C155)
Number of Pixels in Processed Spectrum: 3648
>>>>>Begin Processed Spectral Data<<<<<
195.39	761.00
195.66	761.00
195.93	761.00
196.20	674.00
196.46	724.00
196.73	837.00
197.00	845.00
197.27	822.00
197.54	842.00
197.81	865.00
198.08	871.00
198.35	900.00
198.61	898.00
198.88	861.00
199.15	847.00
199.42	871.00
199.69	899.00
199.96	857.00
200.23	886.00
200.49	884.00
200.76	903.00
201.03	882.00
201.30	885.00
201.57	942.00
201.84	941.00
202.11	886.00
202.38	912.00
202.64	901.00
202.91	928.00
203.18	864.00
203.45	931.00
203.72	999.00
203.99	925.00
204.25	921.00
204.52	910.00
204.79	944.00
205.06	936.00
205.33	886.00
205.60	905.00
205.87	935.00
206.13	931.00
206.40	909.00
206.67	893.00
206.94	923.00
207.21	920.00
207.48	906.00
207.75	918.00
208.01	951.00
208.28	938.00
208.55	888.00
208.82	913.00
209.09	911.00
209.36	922.00
209.62	906.00
209.89	918.00
210.16	941.00
210.43	969.00
210.70	888.00
210.97	900.00
211.23	922.00
211.50	950.00
211.77	912.00
212.04	905.00
212.31	909.00
212.58	933.00
212.84	902.00
213.11	918.00
213.38	908.00
213.65	926.00
213.92	895.00
214.18	903.00
214.45	952.00
214.72	948.00
214.99	888.00
215.26	917.00
215.53	886.00
215.79	926.00
216.06	927.00
216.33	920.00
216.60	908.00
216.87	944.00
217.13	880.00
217.40	890.00
217.67	939.00
217.94	956.00
218.21	903.00
218.48	945.00
218.74	979.00
219.01	941.00
219.28	878.00
219.55	889.00
219.82	926.00
220.08	920.00
220.35	891.00
220.62	903.00
220.89	957.00
221.16	972.00
221.42	918.00
221.69	921.00
221.96	926.00
222.23	937.00
222.50	925.00
222.76	932.00
223.03	917.00
223.30	911.00
223.57	894.00
223.84	900.00
224.10	894.00
224.37	925.00
224.64	849.00
224.91	889.00
225.18	953.00
225.44	945.00
225.71	905.00
225.98	918.00
226.25	945.00
226.51	942.00
226.78	905.00
227.05	921.00
227.32	925.00
227.59	917.00
227.85	923.00
228.12	907.00
228.39	941.00
228.66	958.00
228.92	964.00
229.19	927.00
229.46	931.00
229.73	896.00
230.00	887.00
230.26	919.00
230.53	938.00
230.80	937.00
231.07	862.00
231.33	892.00
231.60	948.00
231.87	948.00
232.14	887.00
232.41	949.00
232.67	937.00
232.94	934.00
233.21	876.00
233.48	909.00
233.74	920.00
234.01	901.00
234.28	884.00
234.55	912.00
234.81	899.00
235.08	955.00
235.35	905.00
235.62	913.00
235.88	913.00
236.15	942.00
236.42	915.00
236.69	917.00
236.95	948.00
237.22	914.00
237.49	893.00
237.76	895.00
238.02	939.00
238.29	950.00
238.56	900.00
238.83	887.00
239.09	921.00
239.36	946.00
239.63	896.00
239.90	911.00
240.16	955.00
240.43	978.00
240.70	914.00
240.97	930.00
241.23	932.00
241.50	935.00
241.77	888.00
242.04	905.00
242.30	880.00
242.57	900.00
242.84	905.00
243.11	908.00
243.37	879.00
243.64	939.00
243.91	886.00
244.18	895.00
244.44	897.00
244.71	898.00
244.98	887.00
245.24	905.00
245.51	908.00
245.78	954.00
246.05	885.00
246.31	887.00
246.58	924.00
246.85	906.00
247.12	891.00
247.38	936.00
247.65	932.00
247.92	942.00
248.18	903.00
248.45	923.00
248.72	932.00
248.99	915.00
249.25	869.00
249.52	901.00
249.79	920.00
250.05	929.00
250.32	877.00
250.59	876.00
250.86	904.00
251.12	898.00
251.39	897.00
251.66	900.00
251.92	934.00
252.19	949.00
252.46	898.00
252.73	928.00
252.99	942.00
253.26	964.00
253.53	888.00
253.79	903.00
254.06	907.00
254.33	893.00
254.60	887.00
254.86	893.00
255.13	926.00
255.40	954.00
255.66	900.00
255.93	917.00
256.20	918.00
256.46	953.00
256.73	914.00
257.00	917.00
257.26	941.00
257.53	945.00
257.80	919.00
258.07	928.00
258.33	990.00
258.60	947.00
258.87	874.00
259.13	900.00
259.40	906.00
259.67	955.00
259.93	904.00
260.20	913.00
260.47	928.00
260.73	913.00
261.00	885.00
261.27	917.00
261.53	929.00
261.80	922.00
262.07	874.00
262.34	897.00
262.60	875.00
262.87	916.00
263.14	886.00
263.40	932.00
263.67	920.00
263.94	906.00
264.20	897.00
264.47	880.00
264.74	886.00
265.00	889.00
265.27	848.00
265.54	893.00
265.80	933.00
266.07	955.00
266.34	894.00
266.60	898.00
266.87	923.00
267.14	932.00
267.40	890.00
267.67	881.00
267.94	936.00
268.20	931.00
268.47	868.00
268.74	874.00
269.00	925.00
269.27	911.00
269.54	860.00
269.80	873.00
270.07	940.00
270.33	918.00
270.60	890.00
270.87	908.00
271.13	908.00
271.40	926.00
271.67	861.00
271.93	860.00
272.20	909.00
272.47	899.00
272.73	852.00
273.00	900.00
273.27	908.00
273.53	946.00
273.80	908.00
274.07	895.00
274.33	906.00
274.60	941.00
274.86	909.00
275.13	900.00
275.40	912.00
275.66	974.00
275.93	912.00
276.20	888.00
276.46	901.00
276.73	898.00
277.00	896.00
277.26	908.00
277.53	947.00
277.79	936.00
278.06	894.00
278.33	932.00
278.59	927.00
278.86	908.00
279.13	888.00
279.39	915.00
279.66	956.00
279.93	955.00
280.19	909.00
280.46	912.00
280.72	908.00
280.99	945.00
281.26	887.00
281.52	893.00
281.79	901.00
282.05	912.00
282.32	891.00
282.59	884.00
282.85	942.00
283.12	938.00
283.39	884.00
283.65	898.00
283.92	937.00
284.18	944.00
284.45	901.00
284.72	899.00
284.98	902.00
285.25	918.00
285.51	911.00
285.78	914.00
286.05	921.00
286.31	919.00
286.58	855.00
286.84	882.00
287.11	909.00
287.38	927.00
287.64	916.00
287.91	891.00
288.17	922.00
288.44	941.00
288.71	878.00
288.97	911.00
289.24	939.00
289.50	914.00
289.77	925.00
290.04	881.00
290.30	885.00
290.57	922.00
290.83	884.00
291.10	882.00
291.37	922.00
291.63	921.00
291.90	931.00
292.16	909.00
292.43	931.00
292.70	922.00
292.96	863.00
293.23	881.00
293.49	887.00
293.76	925.00
294.02	895.00
294.29	898.00
294.56	932.00
294.82	934.00
295.09	898.00
295.35	898.00
295.62	938.00
295.89	944.00
296.15	896.00
296.42	893.00
296.68	925.00
296.95	920.00
297.21	895.00
297.48	885.00
297.75	914.00
298.01	950.00
298.28	907.00
298.54	918.00
298.81	915.00
299.07	919.00
299.34	865.00
299.61	897.00
299.87	935.00
300.14	905.00
300.40	926.00
300.67	917.00
300.93	932.00
301.20	975.00
301.46	889.00
301.73	901.00
302.00	924.00
302.26	910.00
302.53	917.00
302.79	898.00
303.06	919.00
303.32	961.00
303.59	887.00
303.85	884.00
304.12	901.00
304.39	927.00
304.65	882.00
304.92	894.00
305.18	929.00
305.45	943.00
305.71	909.00
305.98	930.00
306.24	918.00
306.51	901.00
306.77	878.00
307.04	898.00
307.31	946.00
307.57	946.00
307.84	874.00
308.10	895.00
308.37	894.00
308.63	893.00
308.90	887.00
309.16	917.00
309.43	933.00
309.69	910.00
309.96	904.00
310.22	895.00
310.49	922.00
310.76	932.00
311.02	878.00
311.29	893.00
311.55	905.00
311.82	917.00
312.08	898.00
312.35	913.00
312.61	928.00
312.88	949.00
313.14	881.00
313.41	876.00
313.67	882.00
313.94	926.00
314.20	908.00
314.47	914.00
314.73	901.00
315.00	907.00
315.26	875.00
315.53	906.00
315.79	917.00
316.06	921.00
316.32	884.00
316.59	901.00
316.85	909.00
317.12	936.00
317.39	862.00
317.65	891.00
317.92	908.00
318.18	925.00
318.45	891.00
318.71	931.00
318.98	935.00
319.24	911.00
319.51	893.00
319.77	892.00
320.04	901.00
320.30	909.00
320.57	886.00
320.83	884.00
321.10	870.00
321.36	901.00
321.63	869.00
321.89	888.00
322.16	947.00
322.42	926.00
322.69	874.00
322.95	881.00
323.22	929.00
323.48	938.00
323.75	897.00
324.01	894.00
324.28	921.00
324.54	921.00
324.80	887.00
325.07	926.00
325.33	944.00
325.60	926.00
325.86	882.00
326.13	884.00
326.39	909.00
326.66	903.00
326.92	849.00
327.19	889.00
327.45	932.00
327.72	936.00
327.98	866.00
328.25	874.00
328.51	907.00
328.78	931.00
329.04	893.00
329.31	918.00
329.57	929.00
329.84	917.00
330.10	879.00
330.37	900.00
330.63	947.00
330.89	970.00
331.16	892.00
331.42	894.00
331.69	945.00
331.95	913.00
332.22	902.00
332.48	934.00
332.75	912.00
333.01	895.00
333.28	897.00
333.54	898.00
333.81	901.00
334.07	939.00
334.34	900.00
334.60	902.00
334.86	952.00
335.13	950.00
335.39	892.00
335.66	894.00
335.92	931.00
336.19	907.00
336.45	863.00
336.72	885.00
336.98	900.00
337.24	920.00
337.51	875.00
337.77	894.00
338.04	897.00
338.30	901.00
338.57	864.00
338.83	900.00
339.10	921.00
339.36	925.00
339.63	891.00
339.89	867.00
340.15	889.00
340.42	918.00
340.68	900.00
340.95	918.00
341.21	907.00
341.48	908.00
341.74	862.00
342.00	880.00
342.27	920.00
342.53	925.00
342.80	898.00
343.06	893.00
343.33	913.00
343.59	912.00
343.85	882.00
344.12	913.00
344.38	974.00
344.65	940.00
344.91	885.00
345.18	886.00
345.44	899.00
345.70	891.00
345.97	843.00
346.23	886.00
346.50	916.00
346.76	926.00
347.03	909.00
347.29	889.00
347.55	911.00
347.82	892.00
348.08	842.00
348.35	879.00
348.61	957.00
348.87	927.00
349.14	867.00
349.40	871.00
349.67	913.00
349.93	912.00
350.20	901.00
350.46	899.00
350.72	925.00
350.99	922.00
351.25	903.00
351.52	899.00
351.78	901.00
352.04	919.00
352.31	902.00
352.57	893.00
352.84	907.00
353.10	920.00
353.36	907.00
353.63	883.00
353.89	903.00
354.16	926.00
354.42	896.00
354.68	897.00
354.95	940.00
355.21	928.00
355.48	881.00
355.74	911.00
356.00	941.00
356.27	951.00
356.53	870.00
356.80	876.00
357.06	908.00
357.32	928.00
357.59	909.00
357.85	927.00
358.11	975.00
358.38	933.00
358.64	894.00
358.91	911.00
359.17	903.00
359.43	926.00
359.70	921.00
359.96	895.00
360.22	926.00
360.49	909.00
360.75	908.00
361.02	863.00
361.28	885.00
361.54	917.00
361.81	869.00
362.07	907.00
362.33	922.00
362.60	908.00
362.86	875.00
363.13	904.00
363.39	943.00
363.65	941.00
363.92	858.00
364.18	864.00
364.44	914.00
364.71	913.00
364.97	871.00
365.24	886.00
365.50	925.00
365.76	930.00
366.03	891.00
366.29	929.00
366.55	939.00
366.82	918.00
367.08	876.00
367.34	883.00
367.61	916.00
367.87	921.00
368.13	904.00
368.40	901.00
368.66	959.00
368.93	934.00
369.19	865.00
369.45	880.00
369.72	908.00
369.98	891.00
370.24	853.00
370.51	879.00
370.77	909.00
371.03	908.00
371.30	900.00
371.56	931.00
371.82	925.00
372.09	918.00
372.35	912.00
372.61	907.00
372.88	907.00
373.14	911.00
373.40	892.00
373.67	891.00
373.93	920.00
374.19	934.00
374.46	890.00
374.72	876.00
374.98	910.00
375.25	923.00
375.51	911.00
375.77	924.00
376.04	931.00
376.30	922.00
376.56	871.00
376.83	905.00
377.09	935.00
377.35	922.00
377.62	899.00
377.88	898.00
378.14	887.00
378.41	905.00
378.67	887.00
378.93	898.00
379.20	908.00
379.46	880.00
379.72	866.00
379.99	869.00
380.25	886.00
380.51	893.00
380.77	881.00
381.04	902.00
381.30	931.00
381.56	938.00
381.83	906.00
382.09	885.00
382.35	906.00
382.62	931.00
382.88	910.00
383.14	908.00
383.41	911.00
383.67	887.00
383.93	897.00
384.20	894.00
384.46	922.00
384.72	936.00
384.98	878.00
385.25	920.00
385.51	935.00
385.77	916.00
386.04	865.00
386.30	876.00
386.56	922.00
386.82	954.00
387.09	904.00
387.35	925.00
387.61	976.00
387.88	930.00
388.14	896.00
388.40	911.00
388.67	901.00
388.93	892.00
389.19	901.00
389.45	890.00
389.72	905.00
389.98	912.00
390.24	878.00
390.51	873.00
390.77	910.00
391.03	935.00
391.29	873.00
391.56	905.00
391.82	944.00
392.08	944.00
392.35	886.00
392.61	883.00
392.87	921.00
393.13	939.00
393.40	894.00
393.66	892.00
393.92	918.00
394.18	913.00
394.45	855.00
394.71	875.00
394.97	889.00
395.24	905.00
395.50	881.00
395.76	912.00
396.02	917.00
396.29	910.00
396.55	873.00
396.81	848.00
397.07	902.00
397.34	876.00
397.60	849.00
397.86	867.00
398.12	896.00
398.39	934.00
398.65	882.00
398.91	877.00
399.17	912.00
399.44	870.00
399.70	840.00
399.96	863.00
400.22	887.00
400.49	940.00
400.75	893.00
401.01	878.00
401.27	899.00
401.54	922.00
401.80	862.00
402.06	876.00
402.32	923.00
402.59	900.00
402.85	875.00
403.11	887.00
403.37	906.00
403.64	935.00
403.90	885.00
404.16	885.00
404.42	910.00
404.69	885.00
404.95	889.00
405.21	884.00
405.47	897.00
405.74	925.00
406.00	886.00
406.26	883.00
406.52	909.00
406.79	927.00
407.05	877.00
407.31	896.00
407.57	907.00
407.83	922.00
408.10	859.00
408.36	872.00
408.62	892.00
408.88	877.00
409.15	882.00
409.41	856.00
409.67	881.00
409.93	934.00
410.20	914.00
410.46	890.00
410.72	891.00
410.98	909.00
411.24	883.00
411.51	900.00
411.77	885.00
412.03	910.00
412.29	916.00
412.55	924.00
412.82	906.00
413.08	918.00
413.34	887.00
413.60	886.00
413.87	894.00
414.13	917.00
414.39	863.00
414.65	884.00
414.91	913.00
415.18	900.00
415.44	875.00
415.70	868.00
415.96	904.00
416.22	915.00
416.49	870.00
416.75	897.00
417.01	899.00
417.27	919.00
417.53	888.00
417.80	900.00
418.06	924.00
418.32	932.00
418.58	884.00
418.84	876.00
419.11	890.00
419.37	907.00
419.63	876.00
419.89	891.00
420.15	920.00
420.42	920.00
420.68	871.00
420.94	899.00
421.20	905.00
421.46	908.00
421.72	899.00
421.99	916.00
422.25	916.00
422.51	908.00
422.77	888.00
423.03	907.00
423.30	918.00
423.56	920.00
423.82	924.00
424.08	921.00
424.34	931.00
424.60	918.00
424.87	883.00
425.13	860.00
425.39	872.00
425.65	893.00
425.91	873.00
426.18	894.00
426.44	915.00
426.70	898.00
426.96	849.00
427.22	852.00
427.48	876.00
427.75	899.00
428.01	852.00
428.27	878.00
428.53	887.00
428.79	880.00
429.05	868.00
429.32	889.00
429.58	951.00
429.84	909.00
430.10	904.00
430.36	884.00
430.62	939.00
430.88	929.00
431.15	882.00
431.41	889.00
431.67	907.00
431.93	890.00
432.19	861.00
432.45	894.00
432.72	898.00
432.98	893.00
433.24	915.00
433.50	976.00
433.76	904.00
434.02	899.00
434.28	874.00
434.55	889.00
434.81	920.00
435.07	932.00
435.33	870.00
435.59	865.00
435.85	880.00
436.11	918.00
436.38	863.00
436.64	885.00
436.90	907.00
437.16	898.00
437.42	879.00
437.68	899.00
437.94	925.00
438.21	929.00
438.47	915.00
438.73	905.00
438.99	916.00
439.25	930.00
439.51	890.00
439.77	891.00
440.03	897.00
440.30	913.00
440.56	879.00
440.82	906.00
441.08	916.00
441.34	912.00
441.60	858.00
441.86	897.00
442.12	927.00
442.39	917.00
442.65	879.00
442.91	883.00
443.17	895.00
443.43	923.00
443.69	899.00
443.95	864.00
444.21	888.00
444.47	911.00
444.74	877.00
445.00	891.00
445.26	902.00
445.52	912.00
445.78	868.00
446.04	883.00
446.30	927.00
446.56	919.00
446.82	879.00
447.09	874.00
447.35	901.00
447.61	909.00
447.87	902.00
448.13	894.00
448.39	954.00
448.65	937.00
448.91	878.00
449.17	891.00
449.43	892.00
449.70	914.00
449.96	858.00
450.22	871.00
450.48	895.00
450.74	918.00
451.00	882.00
451.26	877.00
451.52	899.00
451.78	889.00
452.04	870.00
452.31	904.00
452.57	924.00
452.83	898.00
453.09	872.00
453.35	868.00
453.61	917.00
453.87	921.00
454.13	914.00
454.39	905.00
454.65	962.00
454.91	952.00
455.17	872.00
455.44	884.00
455.70	908.00
455.96	908.00
456.22	874.00
456.48	876.00
456.74	898.00
457.00	878.00
457.26	810.00
457.52	853.00
457.78	893.00
458.04	920.00
458.30	864.00
458.56	882.00
458.82	897.00
459.09	883.00
459.35	836.00
459.61	863.00
459.87	910.00
460.13	935.00
460.39	891.00
460.65	863.00
460.91	901.00
461.17	878.00
461.43	845.00
461.69	853.00
461.95	899.00
462.21	883.00
462.47	875.00
462.73	915.00
462.99	930.00
463.26	911.00
463.52	851.00
463.78	862.00
464.04	874.00
464.30	885.00
464.56	860.00
464.82	882.00
465.08	926.00
465.34	924.00
465.60	880.00
465.86	877.00
466.12	888.00
466.38	869.00
466.64	853.00
466.90	868.00
467.16	908.00
467.42	909.00
467.68	854.00
467.94	885.00
468.20	923.00
468.46	890.00
468.72	884.00
468.98	892.00
469.25	901.00
469.51	869.00
469.77	885.00
470.03	886.00
470.29	889.00
470.55	909.00
470.81	892.00
471.07	894.00
471.33	920.00
471.59	920.00
471.85	868.00
472.11	888.00
472.37	931.00
472.63	909.00
472.89	915.00
473.15	890.00
473.41	901.00
473.67	895.00
473.93	848.00
474.19	853.00
474.45	881.00
474.71	892.00
474.97	863.00
475.23	878.00
475.49	880.00
475.75	869.00
476.01	879.00
476.27	899.00
476.53	947.00
476.79	926.00
477.05	906.00
477.31	893.00
477.57	921.00
477.83	910.00
478.09	860.00
478.35	893.00
478.61	933.00
478.87	902.00
479.13	861.00
479.39	917.00
479.65	921.00
479.91	909.00
480.17	877.00
480.43	907.00
480.69	895.00
480.95	927.00
481.21	893.00
481.47	905.00
481.73	911.00
481.99	889.00
482.25	859.00
482.51	869.00
482.77	917.00
483.03	919.00
483.29	890.00
483.55	886.00
483.81	926.00
484.07	911.00
484.33	871.00
484.59	880.00
484.85	921.00
485.11	924.00
485.37	880.00
485.63	867.00
485.89	872.00
486.15	870.00
486.41	871.00
486.67	892.00
486.93	902.00
487.19	879.00
487.45	870.00
487.71	878.00
487.97	919.00
488.23	913.00
488.49	859.00
488.75	872.00
489.01	899.00
489.27	924.00
489.53	868.00
489.79	871.00
490.05	894.00
490.31	916.00
490.57	898.00
490.83	938.00
491.08	894.00
491.34	870.00
491.60	874.00
491.86	900.00
492.12	937.00
492.38	931.00
492.64	865.00
492.90	871.00
493.16	912.00
493.42	894.00
493.68	869.00
493.94	893.00
494.20	880.00
494.46	894.00
494.72	853.00
494.98	881.00
495.24	890.00
495.50	899.00
495.76	890.00
496.02	889.00
496.28	907.00
496.54	911.00
496.80	882.00
497.05	866.00
497.31	908.00
497.57	906.00
497.83	866.00
498.09	888.00
498.35	932.00
498.61	933.00
498.87	901.00
499.13	888.00
499.39	900.00
499.65	902.00
499.91	894.00
500.17	877.00
500.43	968.00
500.69	968.00
500.95	862.00
501.20	909.00
501.46	922.00
501.72	923.00
501.98	909.00
502.24	914.00
502.50	936.00
502.76	894.00
503.02	867.00
503.28	885.00
503.54	956.00
503.80	957.00
504.06	911.00
504.32	913.00
504.58	902.00
504.83	887.00
505.09	857.00
505.35	889.00
505.61	877.00
505.87	909.00
506.13	893.00
506.39	897.00
506.65	927.00
506.91	942.00
507.17	869.00
507.43	867.00
507.68	899.00
507.94	911.00
508.20	871.00
508.46	857.00
508.72	915.00
508.98	939.00
509.24	857.00
509.50	891.00
509.76	889.00
510.02	886.00
510.28	850.00
510.53	876.00
510.79	889.00
511.05	902.00
511.31	865.00
511.57	905.00
511.83	902.00
512.09	939.00
512.35	883.00
512.61	880.00
512.87	904.00
513.12	925.00
513.38	865.00
513.64	892.00
513.90	908.00
514.16	931.00
514.42	890.00
514.68	894.00
514.94	930.00
515.20	929.00
515.45	889.00
515.71	862.00
515.97	887.00
516.23	888.00
516.49	877.00
516.75	885.00
517.01	908.00
517.27	884.00
517.53	848.00
517.78	865.00
518.04	895.00
518.30	893.00
518.56	855.00
518.82	909.00
519.08	933.00
519.34	875.00
519.60	869.00
519.85	903.00
520.11	900.00
520.37	907.00
520.63	899.00
520.89	894.00
521.15	901.00
521.41	887.00
521.66	861.00
521.92	889.00
522.18	930.00
522.44	923.00
522.70	892.00
522.96	860.00
523.22	912.00
523.48	902.00
523.73	871.00
523.99	882.00
524.25	937.00
524.51	937.00
524.77	874.00
525.03	870.00
525.29	916.00
525.54	910.00
525.80	876.00
526.06	883.00
526.32	894.00
526.58	890.00
526.84	843.00
527.09	863.00
527.35	888.00
527.61	894.00
527.87	875.00
528.13	895.00
528.39	895.00
528.65	904.00
528.90	848.00
529.16	860.00
529.42	897.00
529.68	897.00
529.94	849.00
530.20	879.00
530.45	866.00
530.71	901.00
530.97	866.00
531.23	883.00
531.49	879.00
531.75	882.00
532.00	865.00
532.26	864.00
532.52	902.00
532.78	886.00
533.04	854.00
533.30	869.00
533.55	882.00
533.81	894.00
534.07	848.00
534.33	871.00
534.59	907.00
534.85	894.00
535.10	865.00
535.36	867.00
535.62	903.00
535.88	886.00
536.14	852.00
536.39	878.00
536.65	936.00
536.91	938.00
537.17	879.00
537.43	870.00
537.69	925.00
537.94	906.00
538.20	855.00
538.46	877.00
538.72	905.00
538.98	911.00
539.23	870.00
539.49	866.00
539.75	908.00
540.01	915.00
540.27	885.00
540.52	931.00
540.78	906.00
541.04	921.00
541.30	853.00
541.56	852.00
541.81	914.00
542.07	955.00
542.33	876.00
542.59	879.00
542.85	892.00
543.10	908.00
543.36	874.00
543.62	919.00
543.88	903.00
544.14	879.00
544.39	870.00
544.65	877.00
544.91	928.00
545.17	899.00
545.43	868.00
545.68	869.00
545.94	902.00
546.20	924.00
546.46	873.00
546.71	895.00
546.97	904.00
547.23	905.00
547.49	879.00
547.75	869.00
548.00	899.00
548.26	922.00
548.52	864.00
548.78	859.00
549.03	876.00
549.29	889.00
549.55	849.00
549.81	887.00
550.07	901.00
550.32	903.00
550.58	848.00
550.84	869.00
551.10	887.00
551.35	889.00
551.61	862.00
551.87	892.00
552.13	908.00
552.39	880.00
552.64	850.00
552.90	868.00
553.16	907.00
553.42	893.00
553.67	869.00
553.93	873.00
554.19	908.00
554.45	926.00
554.70	880.00
554.96	853.00
555.22	884.00
555.48	904.00
555.73	863.00
555.99	896.00
556.25	916.00
556.51	886.00
556.76	878.00
557.02	884.00
557.28	903.00
557.54	901.00
557.79	861.00
558.05	909.00
558.31	872.00
558.57	900.00
558.82	858.00
559.08	839.00
559.34	859.00
559.60	905.00
559.85	874.00
560.11	883.00
560.37	880.00
560.63	878.00
560.88	860.00
561.14	864.00
561.40	904.00
561.66	889.00
561.91	868.00
562.17	878.00
562.43	894.00
562.68	924.00
562.94	903.00
563.20	907.00
563.46	920.00
563.71	922.00
563.97	869.00
564.23	892.00
564.49	902.00
564.74	889.00
565.00	859.00
565.26	881.00
565.51	893.00
565.77	863.00
566.03	858.00
566.29	879.00
566.54	864.00
566.80	888.00
567.06	867.00
567.31	901.00
567.57	902.00
567.83	875.00
568.09	894.00
568.34	871.00
568.60	879.00
568.86	902.00
569.11	892.00
569.37	876.00
569.63	898.00
569.89	914.00
570.14	835.00
570.40	867.00
570.66	886.00
570.91	874.00
571.17	863.00
571.43	898.00
571.69	917.00
571.94	909.00
572.20	849.00
572.46	880.00
572.71	890.00
572.97	903.00
573.23	858.00
573.48	869.00
573.74	883.00
574.00	924.00
574.26	867.00
574.51	876.00
574.77	902.00
575.03	891.00
575.28	863.00
575.54	853.00
575.80	881.00
576.05	893.00
576.31	858.00
576.57	853.00
576.82	885.00
577.08	893.00
577.34	870.00
577.59	887.00
577.85	905.00
578.11	881.00
578.37	871.00
578.62	864.00
578.88	906.00
579.14	912.00
579.39	883.00
579.65	898.00
579.91	898.00
580.16	914.00
580.42	878.00
580.68	888.00
580.93	904.00
581.19	881.00
581.45	842.00
581.70	882.00
581.96	896.00
582.22	912.00
582.47	877.00
582.73	877.00
582.99	904.00
583.24	907.00
583.50	858.00
583.76	880.00
584.01	897.00
584.27	908.00
584.53	883.00
584.78	887.00
585.04	871.00
585.30	893.00
585.55	885.00
585.81	876.00
586.07	894.00
586.32	913.00
586.58	876.00
586.83	872.00
587.09	896.00
587.35	894.00
587.60	860.00
587.86	866.00
588.12	891.00
588.37	913.00
588.63	886.00
588.89	894.00
589.14	915.00
589.40	910.00
589.66	860.00
589.91	869.00
590.17	892.00
590.43	852.00
590.68	852.00
590.94	872.00
591.19	917.00
591.45	892.00
591.71	860.00
591.96	868.00
592.22	906.00
592.48	927.00
592.73	851.00
592.99	865.00
593.25	900.00
593.50	914.00
593.76	866.00
594.01	867.00
594.27	905.00
594.53	914.00
594.78	857.00
595.04	874.00
595.30	891.00
595.55	910.00
595.81	851.00
596.06	880.00
596.32	913.00
596.58	917.00
596.83	884.00
597.09	898.00
597.35	908.00
597.60	894.00
597.86	880.00
598.11	880.00
598.37	910.00
598.63	909.00
598.88	866.00
599.14	865.00
599.39	910.00
599.65	896.00
599.91	843.00
600.16	867.00
600.42	902.00
600.67	922.00
600.93	870.00
601.19	906.00
601.44	947.00
601.70	907.00
601.95	866.00
602.21	900.00
602.47	878.00
602.72	901.00
602.98	860.00
603.23	888.00
603.49	906.00
603.75	917.00
604.00	869.00
604.26	869.00
604.51	885.00
604.77	910.00
605.03	860.00
605.28	893.00
605.54	938.00
605.79	938.00
606.05	865.00
606.31	880.00
606.56	908.00
606.82	929.00
607.07	893.00
607.33	897.00
607.59	906.00
607.84	894.00
608.10	859.00
608.35	893.00
608.61	915.00
608.86	917.00
609.12	886.00
609.38	901.00
609.63	937.00
609.89	913.00
610.14	857.00
610.40	878.00
610.65	906.00
610.91	918.00
611.17	875.00
611.42	897.00
611.68	938.00
611.93	959.00
612.19	924.00
612.44	927.00
612.70	934.00
612.96	895.00
613.21	879.00
613.47	886.00
613.72	908.00
613.98	932.00
614.23	902.00
614.49	923.00
614.75	938.00
615.00	915.00
615.26	903.00
615.51	889.00
615.77	910.00
616.02	943.00
616.28	901.00
616.53	921.00
616.79	928.00
617.05	892.00
617.30	880.00
617.56	933.00
617.81	956.00
618.07	939.00
618.32	906.00
618.58	932.00
618.83	951.00
619.09	956.00
619.34	916.00
619.60	929.00
619.86	962.00
620.11	984.00
620.37	929.00
620.62	932.00
620.88	963.00
621.13	956.00
621.39	935.00
621.64	938.00
621.90	964.00
622.15	960.00
622.41	945.00
622.66	954.00
622.92	946.00
623.18	964.00
623.43	911.00
623.69	939.00
623.94	988.00
624.20	988.00
624.45	966.00
624.71	1001.00
624.96	1005.00
625.22	1023.00
625.47	972.00
625.73	984.00
625.98	1014.00
626.24	994.00
626.49	986.00
626.75	1007.00
627.00	1060.00
627.26	1044.00
627.51	1006.00
627.77	1031.00
628.02	1057.00
628.28	1062.00
628.53	1029.00
628.79	1082.00
629.05	1071.00
629.30	1049.00
629.56	1030.00
629.81	1044.00
630.07	1048.00
630.32	1087.00
630.58	1069.00
630.83	1069.00
631.09	1085.00
631.34	1102.00
631.60	1086.00
631.85	1094.00
632.11	1112.00
632.36	1127.00
632.62	1090.00
632.87	1097.00
633.13	1139.00
633.38	1166.00
633.64	1140.00
633.89	1159.00
634.15	1205.00
634.40	1229.00
634.66	1170.00
634.91	1173.00
635.17	1194.00
635.42	1283.00
635.68	1271.00
635.93	1224.00
636.18	1221.00
636.44	1266.00
636.69	1219.00
636.95	1190.00
637.20	1217.00
637.46	1248.00
637.71	1242.00
637.97	1216.00
638.22	1235.00
638.48	1261.00
638.73	1203.00
638.99	1223.00
639.24	1301.00
639.50	1298.00
639.75	1269.00
640.01	1269.00
640.26	1270.00
640.52	1343.00
640.77	1283.00
641.03	1274.00
641.28	1323.00
641.54	1307.00
641.79	1235.00
642.04	1253.00
642.30	1279.00
642.55	1246.00
642.81	1241.00
643.06	1250.00
643.32	1289.00
643.57	1294.00
643.83	1217.00
644.08	1188.00
644.34	1252.00
644.59	1281.00
644.85	1203.00
645.10	1197.00
645.35	1200.00
645.61	1184.00
645.86	1112.00
646.12	1132.00
646.37	1172.00
646.63	1133.00
646.88	1046.00
647.14	1076.00
647.39	1110.00
647.65	1165.00
647.90	1070.00
648.15	1069.00
648.41	1095.00
648.66	1083.00
648.92	1024.00
649.17	1013.00
649.43	1029.00
649.68	1029.00
649.94	1015.00
650.19	997.00
650.44	1028.00
650.70	1017.00
650.95	954.00
651.21	977.00
651.46	1000.00
651.72	994.00
651.97	968.00
652.23	951.00
652.48	968.00
652.73	966.00
652.99	947.00
653.24	965.00
653.50	956.00
653.75	961.00
654.01	946.00
654.26	936.00
654.51	957.00
654.77	984.00
655.02	939.00
655.28	904.00
655.53	927.00
655.79	954.00
656.04	921.00
656.29	927.00
656.55	926.00
656.80	936.00
657.06	882.00
657.31	900.00
657.56	900.00
657.82	905.00
658.07	881.00
658.33	917.00
658.58	933.00
658.84	936.00
659.09	890.00
659.34	907.00
659.60	927.00
659.85	915.00
660.11	876.00
660.36	881.00
660.61	883.00
660.87	890.00
661.12	869.00
661.38	892.00
661.63	908.00
661.88	910.00
662.14	908.00
662.39	900.00
662.65	934.00
662.90	953.00
663.15	887.00
663.41	902.00
663.66	928.00
663.92	933.00
664.17	878.00
664.42	897.00
664.68	937.00
664.93	909.00
665.19	866.00
665.44	862.00
665.69	879.00
665.95	894.00
666.20	862.00
666.45	890.00
666.71	915.00
666.96	917.00
667.22	860.00
667.47	868.00
667.72	886.00
667.98	904.00
668.23	878.00
668.49	911.00
668.74	915.00
668.99	900.00
669.25	870.00
669.50	871.00
669.75	882.00
670.01	883.00
670.26	846.00
670.52	861.00
670.77	904.00
671.02	883.00
671.28	837.00
671.53	869.00
671.78	892.00
672.04	906.00
672.29	887.00
672.54	874.00
672.80	879.00
673.05	902.00
673.31	857.00
673.56	902.00
673.81	921.00
674.07	899.00
674.32	878.00
674.57	871.00
674.83	887.00
675.08	895.00
675.33	884.00
675.59	877.00
675.84	908.00
676.09	894.00
676.35	883.00
676.60	894.00
676.86	908.00
677.11	943.00
677.36	889.00
677.62	890.00
677.87	924.00
678.12	948.00
678.38	865.00
678.63	873.00
678.88	905.00
679.14	910.00
679.39	853.00
679.64	891.00
679.90	900.00
680.15	911.00
680.40	900.00
680.66	873.00
680.91	896.00
681.16	906.00
681.42	872.00
681.67	865.00
681.92	890.00
682.18	923.00
682.43	879.00
682.68	876.00
682.94	878.00
683.19	876.00
683.44	854.00
683.70	890.00
683.95	885.00
684.20	893.00
684.46	890.00
684.71	916.00
684.96	894.00
685.22	915.00
685.47	887.00
685.72	897.00
685.98	890.00
686.23	853.00
686.48	850.00
686.74	896.00
686.99	924.00
687.24	903.00
687.50	857.00
687.75	864.00
688.00	888.00
688.25	895.00
688.51	884.00
688.76	901.00
689.01	888.00
689.27	887.00
689.52	837.00
689.77	862.00
690.03	867.00
690.28	868.00
690.53	866.00
690.79	898.00
691.04	900.00
691.29	903.00
691.54	838.00
691.80	868.00
692.05	886.00
692.30	895.00
692.56	855.00
692.81	884.00
693.06	868.00
693.32	884.00
693.57	881.00
693.82	903.00
694.07	907.00
694.33	896.00
694.58	859.00
694.83	900.00
695.09	892.00
695.34	923.00
695.59	888.00
695.84	869.00
696.10	902.00
696.35	893.00
696.60	857.00
696.86	860.00
697.11	896.00
697.36	903.00
697.61	863.00
697.87	887.00
698.12	872.00
698.37	880.00
698.63	869.00
698.88	863.00
699.13	886.00
699.38	903.00
699.64	853.00
699.89	882.00
700.14	876.00
700.39	880.00
700.65	862.00
700.90	899.00
701.15	885.00
701.40	901.00
701.66	853.00
701.91	868.00
702.16	863.00
702.42	882.00
702.67	841.00
702.92	865.00
703.17	892.00
703.43	896.00
703.68	870.00
703.93	903.00
704.18	926.00
704.44	886.00
704.69	854.00
704.94	898.00
705.19	892.00
705.45	893.00
705.70	870.00
705.95	881.00
706.20	888.00
706.46	910.00
706.71	877.00
706.96	859.00
707.21	885.00
707.47	896.00
707.72	879.00
707.97	913.00
708.22	933.00
708.48	916.00
708.73	858.00
708.98	863.00
709.23	887.00
709.49	879.00
709.74	870.00
709.99	875.00
710.24	889.00
710.50	890.00
710.75	887.00
711.00	899.00
711.25	904.00
711.50	894.00
711.76	869.00
712.01	855.00
712.26	868.00
712.51	889.00
712.77	869.00
713.02	878.00
713.27	863.00
713.52	888.00
713.78	868.00
714.03	866.00
714.28	870.00
714.53	911.00
714.78	878.00
715.04	911.00
715.29	912.00
715.54	902.00
715.79	859.00
716.05	881.00
716.30	903.00
716.55	925.00
716.80	880.00
717.05	889.00
717.31	899.00
717.56	908.00
717.81	881.00
718.06	869.00
718.31	876.00
718.57	899.00
718.82	866.00
719.07	910.00
719.32	884.00
719.57	899.00
719.83	871.00
720.08	897.00
720.33	897.00
720.58	870.00
720.83	840.00
721.09	915.00
721.34	896.00
721.59	907.00
721.84	870.00
722.09	883.00
722.35	889.00
722.60	897.00
722.85	860.00
723.10	890.00
723.35	880.00
723.61	896.00
723.86	888.00
724.11	882.00
724.36	874.00
724.61	892.00
724.87	878.00
725.12	872.00
725.37	878.00
725.62	870.00
725.87	861.00
726.12	870.00
726.38	864.00
726.63	897.00
726.88	868.00
727.13	880.00
727.38	877.00
727.64	903.00
727.89	861.00
728.14	868.00
728.39	857.00
728.64	884.00
728.89	871.00
729.15	910.00
729.40	910.00
729.65	906.00
729.90	845.00
730.15	890.00
730.40	914.00
730.66	885.00
730.91	877.00
731.16	875.00
731.41	885.00
731.66	886.00
731.91	876.00
732.17	913.00
732.42	892.00
732.67	870.00
732.92	856.00
733.17	881.00
733.42	898.00
733.68	888.00
733.93	833.00
734.18	853.00
734.43	854.00
734.68	876.00
734.93	872.00
735.18	893.00
735.44	890.00
735.69	892.00
735.94	851.00
736.19	882.00
736.44	892.00
736.69	936.00
736.95	863.00
737.20	868.00
737.45	899.00
737.70	905.00
737.95	882.00
738.20	913.00
738.45	893.00
738.70	888.00
738.96	869.00
739.21	914.00
739.46	919.00
739.71	917.00
739.96	878.00
740.21	909.00
740.46	934.00
740.72	915.00
740.97	873.00
741.22	906.00
741.47	888.00
741.72	899.00
741.97	868.00
742.22	883.00
742.47	912.00
742.73	885.00
742.98	854.00
743.23	837.00
743.48	836.00
743.73	888.00
743.98	891.00
744.23	876.00
744.48	888.00
744.74	870.00
744.99	883.00
745.24	912.00
745.49	893.00
745.74	898.00
745.99	861.00
746.24	878.00
746.49	859.00
746.74	881.00
747.00	874.00
747.25	888.00
747.50	853.00
747.75	871.00
748.00	843.00
748.25	852.00
748.50	851.00
748.75	883.00
749.00	901.00
749.26	926.00
749.51	888.00
749.76	896.00
750.01	861.00
750.26	875.00
750.51	916.00
750.76	909.00
751.01	861.00
751.26	877.00
751.51	895.00
751.77	921.00
752.02	881.00
752.27	877.00
752.52	879.00
752.77	887.00
753.02	863.00
753.27	890.00
753.52	888.00
753.77	881.00
754.02	870.00
754.27	872.00
754.52	866.00
754.78	902.00
755.03	872.00
755.28	885.00
755.53	893.00
755.78	881.00
756.03	840.00
756.28	880.00
756.53	886.00
756.78	889.00
757.03	879.00
757.28	892.00
757.53	912.00
757.79	868.00
758.04	850.00
758.29	912.00
758.54	915.00
758.79	909.00
759.04	852.00
759.29	844.00
759.54	874.00
759.79	875.00
760.04	861.00
760.29	872.00
760.54	870.00
760.79	886.00
761.04	851.00
761.29	874.00
761.55	851.00
761.80	887.00
762.05	857.00
762.30	873.00
762.55	859.00
762.80	903.00
763.05	887.00
763.30	904.00
763.55	923.00
763.80	897.00
764.05	842.00
764.30	874.00
764.55	906.00
764.80	898.00
765.05	852.00
765.30	890.00
765.55	873.00
765.80	878.00
766.05	818.00
766.30	882.00
766.56	890.00
766.81	905.00
767.06	894.00
767.31	890.00
767.56	876.00
767.81	877.00
768.06	861.00
768.31	897.00
768.56	881.00
768.81	927.00
769.06	877.00
769.31	897.00
769.56	886.00
769.81	898.00
770.06	853.00
770.31	875.00
770.56	892.00
770.81	862.00
771.06	844.00
771.31	870.00
771.56	878.00
771.81	894.00
772.06	838.00
772.31	887.00
772.56	917.00
772.81	914.00
773.06	860.00
773.31	898.00
773.56	883.00
773.81	860.00
774.06	861.00
774.31	870.00
774.56	880.00
774.81	909.00
775.06	886.00
775.31	906.00
775.56	907.00
775.81	875.00
776.06	835.00
776.31	878.00
776.56	878.00
776.82	880.00
777.07	849.00
777.32	854.00
777.57	879.00
777.82	919.00
778.07	884.00
778.32	870.00
778.57	884.00
778.82	909.00
779.07	870.00
779.32	870.00
779.57	858.00
779.82	873.00
780.07	866.00
780.32	868.00
780.56	873.00
780.81	923.00
781.06	858.00
781.31	873.00
781.56	897.00
781.81	913.00
782.06	861.00
782.31	910.00
782.56	893.00
782.81	923.00
783.06	857.00
783.31	876.00
783.56	887.00
783.81	900.00
784.06	862.00
784.31	876.00
784.56	864.00
784.81	923.00
785.06	878.00
785.31	905.00
785.56	869.00
785.81	857.00
786.06	837.00
786.31	876.00
786.56	879.00
786.81	883.00
787.06	875.00
787.31	880.00
787.56	866.00
787.81	873.00
788.06	854.00
788.31	891.00
788.56	867.00
788.81	904.00
789.06	871.00
789.31	878.00
789.56	874.00
789.81	880.00
790.06	844.00
790.31	909.00
790.56	887.00
790.80	872.00
791.05	863.00
791.30	873.00
791.55	876.00
791.80	882.00
792.05	860.00
792.30	862.00
792.55	876.00
792.80	898.00
793.05	870.00
793.30	857.00
793.55	890.00
793.80	901.00
794.05	870.00
794.30	891.00
794.55	898.00
794.80	903.00
795.05	859.00
795.30	862.00
795.54	868.00
795.79	887.00
796.04	851.00
796.29	883.00
796.54	881.00
796.79	902.00
797.04	869.00
797.29	878.00
797.54	902.00
797.79	910.00
798.04	874.00
798.29	879.00
798.54	857.00
798.79	867.00
799.04	850.00
799.29	877.00
799.53	867.00
799.78	867.00
800.03	851.00
800.28	859.00
800.53	877.00
800.78	918.00
801.03	872.00
801.28	870.00
801.53	869.00
801.78	913.00
802.03	887.00
802.28	884.00
802.52	900.00
802.77	899.00
803.02	903.00
803.27	909.00
803.52	854.00
803.77	906.00
804.02	898.00
804.27	906.00
804.52	902.00
804.77	913.00
805.02	881.00
805.27	903.00
805.51	892.00
805.76	900.00
806.01	852.00
806.26	863.00
806.51	886.00
806.76	915.00
807.01	893.00
807.26	881.00
807.51	880.00
807.76	862.00
808.00	865.00
808.25	887.00
808.50	893.00
808.75	858.00
809.00	852.00
809.25	884.00
809.50	877.00
809.75	904.00
810.00	878.00
810.24	868.00
810.49	838.00
810.74	860.00
810.99	860.00
811.24	873.00
811.49	893.00
811.74	906.00
811.99	846.00
812.24	885.00
812.48	861.00
812.73	858.00
812.98	848.00
813.23	861.00
813.48	862.00
813.73	862.00
813.98	834.00
814.23	871.00
814.47	862.00
814.72	871.00
814.97	845.00
815.22	892.00
815.47	849.00
815.72	878.00
815.97	849.00
816.22	876.00
816.46	876.00
816.71	893.00
816.96	879.00
817.21	878.00
817.46	861.00
817.71	886.00
817.96	853.00
818.20	862.00
818.45	839.00
818.70	882.00
818.95	846.00
819.20	892.00
819.45	884.00
819.70	882.00
819.94	848.00
820.19	880.00
820.44	881.00
820.69	908.00
820.94	868.00
821.19	901.00
821.44	940.00
821.68	930.00
821.93	867.00
822.18	887.00
822.43	915.00
822.68	918.00
822.93	867.00
823.17	879.00
823.42	901.00
823.67	876.00
823.92	838.00
824.17	873.00
824.42	862.00
824.67	905.00
824.91	873.00
825.16	868.00
825.41	883.00
825.66	889.00
825.91	860.00
826.16	862.00
826.40	889.00
826.65	892.00
826.90	869.00
827.15	877.00
827.40	877.00
827.65	918.00
827.89	836.00
828.14	884.00
828.39	896.00
828.64	891.00
828.89	854.00
829.13	869.00
829.38	867.00
829.63	885.00
829.88	860.00
830.13	852.00
830.38	846.00
830.62	882.00
830.87	858.00
831.12	870.00
831.37	897.00
831.62	929.00
831.86	865.00
832.11	873.00
832.36	862.00
832.61	888.00
832.86	867.00
833.10	882.00
833.35	871.00
833.60	905.00
833.85	869.00
834.10	901.00
834.35	911.00
834.59	910.00
834.84	860.00
835.09	871.00
835.34	862.00
835.59	881.00
835.83	883.00
836.08	885.00
836.33	901.00
836.58	905.00
836.83	869.00
837.07	893.00
837.32	890.00
837.57	866.00
837.82	868.00
838.06	887.00
838.31	893.00
838.56	914.00
838.81	849.00
839.06	874.00
839.30	873.00
839.55	891.00
839.80	850.00
840.05	877.00
840.30	897.00
840.54	905.00
840.79	861.00
841.04	874.00
841.29	902.00
841.53	903.00
841.78	876.00
842.03	865.00
842.28	859.00
842.53	873.00
842.77	872.00
843.02	881.00
843.27	869.00
843.52	877.00
843.76	869.00
844.01	907.00
844.26	884.00
844.51	905.00
844.75	859.00
845.00	859.00
845.25	885.00
845.50	893.00
845.75	855.00
845.99	886.00
846.24	881.00
846.49	897.00
846.74	846.00
846.98	837.00
847.23	864.00
847.48	892.00
847.73	851.00
847.97	869.00
848.22	913.00
848.47	906.00
848.72	869.00
848.96	857.00
849.21	887.00
849.46	861.00
849.71	852.00
849.95	863.00
850.20	868.00
850.45	884.00
850.70	845.00
850.94	871.00
851.19	867.00
851.44	861.00
851.69	825.00
851.93	870.00
852.18	904.00
852.43	897.00
852.68	874.00
852.92	896.00
853.17	929.00
853.42	906.00
853.66	874.00
853.91	898.00
854.16	867.00
854.41	918.00
854.65	881.00
854.90	865.00
855.15	880.00
855.40	888.00
855.64	872.00
855.89	877.00
856.14	884.00
856.39	893.00
856.63	857.00
856.88	868.00
857.13	877.00
857.37	869.00
857.62	835.00
857.87	845.00
858.12	876.00
858.36	901.00
858.61	817.00
858.86	857.00
859.10	914.00
859.35	894.00
859.60	837.00
859.85	835.00
860.09	846.00
860.34	882.00
860.59	874.00
860.83	898.00
861.08	880.00
861.33	916.00
861.58	873.00
861.82	873.00
862.07	880.00
862.32	888.00
862.56	871.00
862.81	870.00
863.06	882.00
863.30	869.00
863.55	861.00
863.80	878.00
864.05	887.00
864.29	877.00
864.54	885.00
864.79	884.00
865.03	884.00
865.28	915.00
865.53	883.00
865.77	847.00
866.02	876.00
866.27	906.00
866.51	869.00
866.76	858.00
867.01	848.00
867.26	882.00
867.50	856.00
867.75	837.00
868.00	869.00
868.24	898.00
868.49	855.00
868.74	871.00
868.98	866.00
869.23	884.00
869.48	876.00
869.72	877.00
869.97	858.00
870.22	903.00
870.46	866.00
870.71	876.00
870.96	868.00
871.20	887.00
871.45	846.00
871.70	874.00
871.94	911.00
872.19	908.00
872.44	894.00
872.68	865.00
872.93	880.00
873.18	891.00
873.42	858.00
873.67	874.00
873.92	906.00
874.16	871.00
874.41	849.00
874.66	878.00
874.90	876.00
875.15	931.00
875.40	895.00
875.64	892.00
875.89	889.00
876.14	892.00
876.38	875.00
876.63	875.00
876.88	889.00
877.12	884.00
877.37	837.00
877.62	884.00
877.86	869.00
878.11	900.00
878.36	846.00
878.60	867.00
878.85	858.00
879.09	873.00
879.34	870.00
879.59	897.00
879.83	926.00
880.08	912.00
880.33	876.00
880.57	906.00
880.82	909.00
881.07	881.00
881.31	863.00
881.56	874.00
881.80	871.00
882.05	878.00
882.30	841.00
882.54	859.00
882.79	910.00
883.04	942.00
883.28	897.00
883.53	874.00
883.77	892.00
884.02	881.00
884.27	853.00
884.51	863.00
884.76	878.00
885.01	906.00
885.25	851.00
885.50	882.00
885.74	864.00
885.99	911.00
886.24	868.00
886.48	859.00
886.73	888.00
886.98	903.00
887.22	868.00
887.47	882.00
887.71	890.00
887.96	882.00
888.21	874.00
888.45	862.00
888.70	872.00
888.94	913.00
889.19	854.00
889.44	860.00
889.68	874.00
889.93	899.00
890.17	866.00
890.42	863.00
890.67	899.00
890.91	963.00
891.16	856.00
891.40	844.00
891.65	845.00
891.90	889.00
892.14	831.00
892.39	864.00
892.63	881.00
892.88	916.00
893.13	877.00
893.37	864.00
893.62	866.00
893.86	897.00
894.11	860.00
894.36	872.00
894.60	863.00
894.85	864.00
895.09	864.00
895.34	891.00
895.59	888.00
895.83	889.00
896.08	854.00
896.32	851.00
896.57	877.00
896.81	886.00
897.06	858.00
897.31	868.00
897.55	894.00
897.80	890.00
898.04	843.00
898.29	858.00
898.53	878.00
898.78	895.00
899.03	877.00
899.27	866.00
899.52	888.00
899.76	909.00
900.01	876.00
900.25	893.00
900.50	898.00
900.75	920.00
900.99	870.00
901.24	946.00
901.48	891.00
901.73	889.00
901.97	858.00
902.22	897.00
902.47	893.00
902.71	885.00
902.96	848.00
903.20	865.00
903.45	903.00
903.69	896.00
903.94	887.00
904.18	860.00
904.43	876.00
904.68	880.00
904.92	849.00
905.17	870.00
905.41	878.00
905.66	890.00
905.90	874.00
906.15	883.00
906.39	887.00
906.64	884.00
906.88	850.00
907.13	857.00
907.38	882.00
907.62	903.00
907.87	858.00
908.11	889.00
908.36	858.00
908.60	862.00
908.85	815.00
909.09	862.00
909.34	872.00
909.58	886.00
909.83	836.00
910.07	852.00
910.32	915.00
910.56	912.00
910.81	861.00
911.06	898.00
911.30	893.00
911.55	861.00
911.79	850.00
912.04	860.00
912.28	858.00
912.53	906.00
912.77	880.00
913.02	862.00
913.26	870.00
913.51	858.00
913.75	858.00
914.00	869.00
914.24	882.00
914.49	887.00
914.73	845.00
914.98	890.00
915.22	905.00
915.47	897.00
915.71	860.00
915.96	873.00
916.20	888.00
916.45	862.00
916.69	857.00
916.94	870.00
917.18	875.00
917.43	893.00
917.67	870.00
917.92	854.00
918.16	898.00
918.41	902.00
918.65	861.00
918.90	842.00
919.14	836.00
919.39	884.00
919.63	851.00
919.88	849.00
920.12	902.00
920.37	904.00
920.61	854.00
920.86	886.00
921.10	888.00
921.35	882.00
921.59	858.00
921.84	888.00
922.08	897.00
922.33	925.00
922.57	868.00
922.82	854.00
923.06	886.00
923.31	891.00
923.55	843.00
923.80	868.00
924.04	860.00
924.29	892.00
924.53	857.00
924.78	880.00
925.02	867.00
925.27	877.00
925.51	883.00
925.76	898.00
926.00	880.00
926.25	886.00
926.49	863.00
926.73	898.00
926.98	891.00
927.22	912.00
927.47	886.00
927.71	878.00
927.96	896.00
928.20	890.00
928.45	868.00
928.69	922.00
928.94	894.00
929.18	868.00
929.43	871.00
929.67	875.00
929.91	892.00
930.16	908.00
930.40	842.00
930.65	852.00
930.89	858.00
931.14	903.00
931.38	877.00
931.63	893.00
931.87	883.00
932.12	886.00
932.36	844.00
932.60	870.00
932.85	909.00
933.09	877.00
933.34	850.00
933.58	904.00
933.83	869.00
934.07	890.00
934.32	877.00
934.56	902.00
934.80	917.00
935.05	913.00
935.29	868.00
935.54	881.00
935.78	890.00
936.03	911.00
936.27	837.00
936.52	854.00
936.76	882.00
937.00	891.00
937.25	867.00
937.49	889.00
937.74	906.00
937.98	899.00
938.23	830.00
938.47	850.00
938.71	874.00
938.96	875.00
939.20	849.00
939.45	843.00
939.69	863.00
939.94	895.00
940.18	840.00
940.42	876.00
940.67	904.00
940.91	872.00
941.16	859.00
941.40	856.00
941.64	871.00
941.89	897.00
942.13	868.00
942.38	891.00
942.62	954.00
942.87	921.00
943.11	890.00
943.35	863.00
943.60	886.00
943.84	909.00
944.09	879.00
944.33	903.00
944.57	904.00
944.82	879.00
945.06	851.00
945.31	883.00
945.55	866.00
945.79	907.00
946.04	863.00
946.28	870.00
946.53	886.00
946.77	893.00
947.01	833.00
947.26	885.00
947.50	868.00
947.75	876.00
947.99	858.00
948.23	873.00
948.48	894.00
948.72	899.00
948.97	869.00
949.21	881.00
949.45	883.00
949.70	900.00
949.94	882.00
950.18	884.00
950.43	893.00
950.67	896.00
950.92	867.00
951.16	869.00
951.40	878.00
951.65	886.00
951.89	866.00
952.13	871.00
952.38	873.00
952.62	880.00
952.87	852.00
953.11	894.00
953.35	903.00
953.60	886.00
953.84	826.00
954.08	846.00
954.33	874.00
954.57	887.00
954.82	872.00
955.06	863.00
955.30	868.00
955.55	872.00
955.79	848.00
956.03	850.00
956.28	854.00
956.52	862.00
956.76	852.00
957.01	874.00
957.25	864.00
957.50	890.00
957.74	844.00
957.98	854.00
958.23	884.00
958.47	880.00
958.71	878.00
958.96	888.00
959.20	913.00
959.44	887.00
959.69	860.00
959.93	870.00
960.17	881.00
960.42	898.00
960.66	879.00
960.90	884.00
961.15	872.00
961.39	874.00
961.64	855.00
961.88	844.00
962.12	891.00
962.37	892.00
962.61	860.00
962.85	844.00
963.10	893.00
963.34	886.00
963.58	844.00
963.83	867.00
964.07	884.00
964.31	888.00
964.56	872.00
964.80	852.00
965.04	866.00
965.29	888.00
965.53	870.00
965.77	868.00
966.02	838.00
966.26	852.00
966.50	834.00
966.74	872.00
966.99	892.00
967.23	889.00
967.47	872.00
967.72	871.00
967.96	890.00
968.20	897.00
968.45	850.00
968.69	857.00
968.93	869.00
969.18	889.00
969.42	888.00
969.66	889.00
969.91	873.00
970.15	919.00
970.39	876.00
970.64	878.00
970.88	881.00
971.12	892.00
971.36	882.00
971.61	863.00
971.85	872.00
972.09	887.00
972.34	847.00
972.58	868.00
972.82	910.00
973.07	922.00
973.31	854.00
973.55	869.00
973.79	897.00
974.04	919.00
974.28	889.00
974.52	884.00
974.77	870.00
975.01	900.00
975.25	876.00
975.50	884.00
975.74	901.00
975.98	905.00
976.22	880.00
976.47	867.00
976.71	878.00
976.95	899.00
977.20	898.00
977.44	888.00
977.68	887.00
977.92	903.00
978.17	868.00
978.41	861.00
978.65	876.00
978.90	872.00
979.14	886.00
979.38	884.00
979.62	867.00
979.87	867.00
980.11	844.00
980.35	866.00
980.59	894.00
980.84	900.00
981.08	855.00
981.32	878.00
981.57	907.00
981.81	902.00
982.05	872.00
982.29	856.00
982.54	882.00
982.78	888.00
983.02	839.00
983.26	874.00
983.51	920.00
983.75	921.00
983.99	843.00
984.23	892.00
984.48	892.00
984.72	902.00
984.96	844.00
985.20	857.00
985.45	940.00
985.69	901.00
985.93	881.00
986.17	895.00
986.42	876.00
986.66	883.00
986.90	825.00
987.14	846.00
987.39	867.00
987.63	870.00
987.87	849.00
988.11	863.00
988.36	904.00
988.60	916.00
988.84	893.00
989.08	862.00
989.33	894.00
989.57	894.00
989.81	847.00
990.05	852.00
990.30	873.00
990.54	862.00
990.78	862.00
991.02	849.00
991.27	886.00
991.51	883.00
991.75	852.00
991.99	894.00
992.23	861.00
992.48	848.00
992.72	840.00
992.96	854.00
993.20	862.00
993.45	882.00
993.69	879.00
993.93	862.00
994.17	897.00
994.41	885.00
994.66	851.00
994.90	884.00
995.14	916.00
995.38	888.00
995.63	857.00
995.87	862.00
996.11	902.00
996.35	897.00
996.59	852.00
996.84	852.00
997.08	876.00
997.32	868.00
997.56	857.00
997.80	840.00
998.05	843.00
998.29	860.00
998.53	850.00
998.77	882.00
999.01	893.00
999.26	889.00
999.50	865.00
999.74	862.00
999.98	888.00
1000.22	892.00
1000.47	851.00
1000.71	859.00
1000.95	889.00
1001.19	891.00
1001.43	878.00
1001.68	873.00
1001.92	866.00
1002.16	860.00
1002.40	841.00
1002.64	877.00
1002.89	883.00
1003.13	887.00
1003.37	872.00
1003.61	860.00
1003.85	871.00
1004.10	884.00
1004.34	872.00
1004.58	869.00
1004.82	893.00
1005.06	894.00
1005.30	872.00
1005.55	870.00
1005.79	881.00
1006.03	893.00
1006.27	863.00
1006.51	868.00
1006.76	883.00
1007.00	916.00
1007.24	875.00
1007.48	880.00
1007.72	881.00
1007.96	892.00
1008.21	876.00
1008.45	881.00
1008.69	899.00
1008.93	893.00
1009.17	869.00
1009.41	897.00
1009.66	907.00
1009.90	877.00
1010.14	847.00
1010.38	887.00
1010.62	903.00
1010.86	918.00
1011.10	859.00
1011.35	855.00
1011.59	878.00
1011.83	857.00
1012.07	824.00
1012.31	869.00
1012.55	883.00
1012.80	901.00
1013.04	884.00
1013.28	881.00
1013.52	886.00
1013.76	881.00
1014.00	837.00
1014.24	853.00
1014.49	883.00
1014.73	917.00
1014.97	902.00
1015.21	876.00
1015.45	917.00
1015.69	890.00
1015.93	873.00
1016.18	861.00
1016.42	905.00
1016.66	902.00
1016.90	851.00
1017.14	852.00
1017.38	858.00
1017.62	877.00
1017.87	875.00
1018.11	875.00
1018.35	894.00
1018.59	881.00
1018.83	841.00
1019.07	882.00
1019.31	897.00
1019.55	919.00
1019.80	873.00
1020.04	878.00
1020.28	875.00
1020.52	877.00
1020.76	857.00
1021.00	848.00
1021.24	862.00
1021.48	854.00
1021.73	857.00
1021.97	876.00
1022.21	879.00
1022.45	890.00
1022.69	863.00
1022.93	851.00
1023.17	874.00
1023.41	920.00
1023.65	868.00
1023.90	893.00
1024.14	903.00
1024.38	874.00
1024.62	833.00
1024.86	866.00
1025.10	892.00
1025.34	878.00
1025.58	842.00
1025.82	863.00
1026.07	903.00
1026.31	904.00
1026.55	857.00
1026.79	852.00
1027.03	890.00
1027.27	892.00
1027.51	838.00
1027.75	828.00
1027.99	861.00
1028.23	925.00
1028.47	890.00
1028.72	859.00
1028.96	873.00
1029.20	886.00
1029.44	881.00
1029.68	880.00
1029.92	877.00
1030.16	882.00
1030.40	833.00
1030.64	841.00
1030.88	882.00
1031.12	877.00
1031.37	838.00
1031.61	869.00
1031.85	901.00
1032.09	899.00
1032.33	858.00
1032.57	913.00
1032.81	872.00
1033.05	895.00
1033.29	855.00
1033.53	868.00
1033.77	916.00
1034.01	911.00
1034.25	886.00
1034.50	877.00
1034.74	889.00
1034.98	901.00
1035.22	871.00
1035.46	883.00
1035.70	912.00
1035.94	897.00
1036.18	857.00
1036.42	852.00
1036.66	868.00
1036.90	873.00
1037.14	844.00
1037.38	858.00
1037.62	902.00
1037.86	869.00
1038.10	869.00
1038.35	856.00
1038.59	906.00
1038.83	901.00
1039.07	888.00
1039.31	900.00
1039.55	867.00
1039.79	878.00
1040.03	832.00
1040.27	858.00
1040.51	904.00
1040.75	917.00
1040.99	884.00
1041.23	889.00
1041.47	901.00
1041.71	915.00
1041.95	873.00
1042.19	854.00
1042.43	896.00
1042.67	901.00
1042.91	872.00
1043.15	870.00
1043.39	924.00
1043.64	892.00
1043.88	866.00
1044.12	885.00
1044.36	925.00
1044.60	902.00
1044.84	872.00
1045.08	880.00
1045.32	892.00
1045.56	899.00
1045.80	885.00
1046.04	881.00
1046.28	915.00
1046.52	897.00
1046.76	849.00
1047.00	847.00
1047.24	894.00
1047.48	886.00
1047.72	856.00
1047.96	866.00
1048.20	902.00
1048.44	910.00
1048.68	843.00
1048.92	854.00
1049.16	882.00
1049.40	893.00
1049.64	872.00
1049.88	901.00
1050.12	914.00
1050.36	935.00
1050.60	885.00
1050.84	882.00
1051.08	886.00
1051.32	878.00
1051.56	872.00
1051.80	852.00
1052.04	880.00
1052.28	904.00
1052.52	859.00
1052.76	841.00
1053.00	868.00
1053.24	891.00
1053.48	850.00
1053.72	845.00
1053.96	894.00
1054.20	902.00
1054.44	872.00
1054.68	884.00
1054.92	905.00
1055.16	868.00
1055.40	857.00
1055.64	881.00
1055.88	909.00
1056.12	923.00
1056.36	817.00
1056.60	842.00
1056.84	907.00
1057.08	882.00
1057.32	854.00
1057.56	862.00
1057.80	865.00
1058.04	914.00
1058.28	865.00
1058.52	868.00
1058.76	902.00
1059.00	912.00
1059.24	845.00
1059.48	853.00
1059.72	892.00
1059.96	893.00
1060.20	901.00
1060.44	901.00
1060.68	908.00
1060.92	893.00
1061.16	838.00
1061.40	849.00
1061.64	885.00
1061.88	900.00
1062.11	870.00
1062.35	852.00
1062.59	872.00
1062.83	908.00
1063.07	869.00
1063.31	859.00
1063.55	879.00
1063.79	900.00
1064.03	866.00
1064.27	854.00
1064.51	890.00
1064.75	884.00
1064.99	876.00
1065.23	870.00
1065.47	866.00
1065.71	916.00
1065.95	883.00
1066.19	877.00
1066.43	900.00
1066.67	910.00
1066.91	891.00
1067.15	879.00
1067.38	870.00
1067.62	890.00
1067.86	857.00
1068.10	886.00
1068.34	927.00
1068.58	923.00
1068.82	866.00
1069.06	839.00
1069.30	880.00
1069.54	920.00
1069.78	898.00
1070.02	868.00
1070.26	894.00
1070.50	936.00
1070.74	877.00
1070.98	906.00
1071.21	892.00
1071.45	884.00
1071.69	853.00
1071.93	875.00
1072.17	893.00
1072.41	908.00
1072.65	901.00
1072.89	884.00
1073.13	889.00
1073.37	885.00
1073.61	861.00
1073.85	868.00
1074.09	857.00
1074.32	871.00
1074.56	870.00
1074.80	947.00
1075.04	1142.00
1075.28	996.00
1075.52	887.00
1075.76	895.00
1076.00	919.00
1076.24	891.00
1076.48	870.00
1076.72	889.00
1076.96	921.00
1077.19	897.00
1077.43	867.00
1077.67	873.00
1077.91	878.00
1078.15	871.00
1078.39	872.00
1078.63	868.00
1078.87	882.00
1079.11	890.00
1079.35	846.00
1079.58	853.00
1079.82	889.00
1080.06	870.00
1080.30	849.00
1080.54	884.00
1080.78	897.00
1081.02	896.00
1081.26	871.00
1081.50	886.00
1081.74	884.00
1081.97	888.00
1082.21	862.00
1082.45	889.00
1082.69	884.00
1082.93	865.00
1083.17	859.00
1083.41	876.00
1083.65	918.00
1083.88	923.00
1084.12	889.00
1084.36	881.00
1084.60	896.00
1084.84	903.00
1085.08	842.00
1085.32	870.00
1085.56	901.00
1085.80	886.00
1086.03	865.00
1086.27	844.00
1086.51	876.00
1086.75	910.00
1086.99	877.00
1087.23	838.00
1087.47	881.00
1087.70	864.00
1087.94	859.00
1088.18	896.00
1088.42	928.00
1088.66	886.00
1088.90	826.00
1089.14	857.00
1089.38	877.00
1089.61	906.00
1089.85	867.00
1090.09	848.00
1090.33	899.00
1090.57	894.00
1090.81	835.00
1091.05	865.00
1091.28	892.00
1091.52	909.00
1091.76	856.00
1092.00	861.00
1092.24	894.00
1092.48	928.00
1092.71	862.00
1092.95	902.00
1093.19	903.00
1093.43	872.00
1093.67	836.00
1093.91	881.00
1094.15	894.00
1094.38	901.00
1094.62	851.00
1094.86	848.00
1095.10	866.00
1095.34	873.00
1095.58	856.00
1095.81	867.00
1096.05	913.00
1096.29	912.00
1096.53	845.00
1096.77	874.00
1097.01	868.00
1097.24	902.00
1097.48	862.00
1097.72	862.00
1097.96	878.00
1098.20	886.00
1098.44	846.00
1098.67	836.00
1098.91	898.00
1099.15	899.00
1099.39	846.00
1099.63	865.00
1099.86	897.00
1100.10	880.00
1100.34	866.00
1100.58	855.00
1100.82	862.00
1101.06	865.00
1101.29	839.00
1101.53	875.00
1101.77	896.00
1102.01	868.00
1102.25	852.00
1102.48	876.00
1102.72	913.00
1102.96	891.00
1103.20	834.00
1103.44	850.00
1103.67	865.00
1103.91	891.00
1104.15	845.00
1104.39	865.00
1104.63	881.00
1104.86	851.00
1105.10	844.00
1105.34	891.00
1105.58	865.00
1105.82	877.00
1106.05	846.00
1106.29	873.00
1106.53	882.00
1106.77	911.00
1107.01	857.00
1107.24	882.00
1107.48	916.00
1107.72	900.00
1107.96	854.00
1108.20	872.00
1108.43	879.00
1108.67	874.00
1108.91	852.00
1109.15	856.00
1109.39	882.00
1109.62	880.00
1109.86	840.00
1110.10	866.00
1110.34	915.00
1110.57	934.00
1110.81	882.00
1111.05	878.00
1111.29	917.00
1111.53	919.00
1111.76	866.00
1112.00	897.00
1112.24	914.00
1112.48	896.00
1112.71	840.00
1112.95	852.00
1113.19	903.00
1113.43	886.00
1113.66	841.00
1113.90	873.00
1114.14	891.00
1114.38	880.00
1114.62	848.00
1114.85	896.00
1115.09	895.00
1115.33	942.00
1115.57	868.00
1115.80	846.00
1116.04	886.00
1116.28	889.00
1116.52	865.00
1116.75	872.00
1116.99	906.00
1117.23	909.00
1117.47	882.00
1117.70	897.00
1117.94	938.00
1118.18	883.00
1118.42	853.00
1118.65	894.00
1118.89	904.00
1119.13	897.00
1119.37	848.00
1119.60	871.00
1119.84	892.00
>>>>>End Processed Spectral Data<<<<<
