SpectraSuite Data File
++++++++++++++++++++++++++++++++++++
Date: Fri Dec 06 15:54:54 CET 2024
User: student
Dark Spectrum Present: No
Reference Spectrum Present: No
Number of Sampled Component Spectra: 1
Spectrometers: HR4C155
Integration Time (usec): 100000 (HR4C155)
Spectra Averaged: 1 (HR4C155)
Boxcar Smoothing: 0 (HR4C155)
Correct for Electrical Dark: No (HR4C155)
Strobe/Lamp Enabled: No (HR4C155)
Correct for Detector Non-linearity: No (HR4C155)
Correct for Stray Light: No (HR4C155)
Number of Pixels in Processed Spectrum: 3648
>>>>>Begin Processed Spectral Data<<<<<
195.39	727.00
195.66	727.00
195.93	727.00
196.20	681.00
196.46	729.00
196.73	842.00
197.00	843.00
197.27	846.00
197.54	862.00
197.81	863.00
198.08	863.00
198.35	894.00
198.61	891.00
198.88	851.00
199.15	860.00
199.42	881.00
199.69	886.00
199.96	869.00
200.23	881.00
200.49	874.00
200.76	901.00
201.03	897.00
201.30	891.00
201.57	944.00
201.84	950.00
202.11	902.00
202.38	922.00
202.64	921.00
202.91	930.00
203.18	880.00
203.45	952.00
203.72	1010.00
203.99	937.00
204.25	929.00
204.52	932.00
204.79	934.00
205.06	944.00
205.33	864.00
205.60	890.00
205.87	945.00
206.13	938.00
206.40	896.00
206.67	903.00
206.94	927.00
207.21	929.00
207.48	918.00
207.75	916.00
208.01	948.00
208.28	945.00
208.55	893.00
208.82	917.00
209.09	918.00
209.36	946.00
209.62	915.00
209.89	931.00
210.16	933.00
210.43	976.00
210.70	894.00
210.97	922.00
211.23	940.00
211.50	963.00
211.77	899.00
212.04	920.00
212.31	933.00
212.58	952.00
212.84	903.00
213.11	915.00
213.38	874.00
213.65	906.00
213.92	896.00
214.18	906.00
214.45	944.00
214.72	948.00
214.99	886.00
215.26	904.00
215.53	897.00
215.79	943.00
216.06	939.00
216.33	927.00
216.60	907.00
216.87	934.00
217.13	876.00
217.40	897.00
217.67	929.00
217.94	960.00
218.21	900.00
218.48	940.00
218.74	994.00
219.01	933.00
219.28	870.00
219.55	875.00
219.82	918.00
220.08	938.00
220.35	897.00
220.62	912.00
220.89	971.00
221.16	986.00
221.42	927.00
221.69	928.00
221.96	933.00
222.23	950.00
222.50	947.00
222.76	936.00
223.03	917.00
223.30	903.00
223.57	879.00
223.84	892.00
224.10	914.00
224.37	948.00
224.64	907.00
224.91	908.00
225.18	946.00
225.44	958.00
225.71	910.00
225.98	923.00
226.25	946.00
226.51	949.00
226.78	884.00
227.05	895.00
227.32	918.00
227.59	930.00
227.85	912.00
228.12	914.00
228.39	949.00
228.66	955.00
228.92	955.00
229.19	928.00
229.46	944.00
229.73	919.00
230.00	889.00
230.26	924.00
230.53	963.00
230.80	940.00
231.07	872.00
231.33	879.00
231.60	954.00
231.87	963.00
232.14	904.00
232.41	947.00
232.67	947.00
232.94	946.00
233.21	893.00
233.48	916.00
233.74	931.00
234.01	910.00
234.28	894.00
234.55	909.00
234.81	906.00
235.08	948.00
235.35	908.00
235.62	893.00
235.88	907.00
236.15	936.00
236.42	933.00
236.69	934.00
236.95	948.00
237.22	921.00
237.49	894.00
237.76	895.00
238.02	945.00
238.29	957.00
238.56	909.00
238.83	897.00
239.09	917.00
239.36	964.00
239.63	905.00
239.90	910.00
240.16	944.00
240.43	982.00
240.70	934.00
240.97	928.00
241.23	915.00
241.50	931.00
241.77	910.00
242.04	905.00
242.30	885.00
242.57	904.00
242.84	889.00
243.11	905.00
243.37	884.00
243.64	953.00
243.91	908.00
244.18	908.00
244.44	896.00
244.71	902.00
244.98	904.00
245.24	912.00
245.51	932.00
245.78	947.00
246.05	884.00
246.31	895.00
246.58	938.00
246.85	922.00
247.12	904.00
247.38	927.00
247.65	924.00
247.92	941.00
248.18	911.00
248.45	918.00
248.72	919.00
248.99	932.00
249.25	881.00
249.52	888.00
249.79	930.00
250.05	936.00
250.32	895.00
250.59	892.00
250.86	911.00
251.12	920.00
251.39	894.00
251.66	907.00
251.92	938.00
252.19	944.00
252.46	899.00
252.73	944.00
252.99	963.00
253.26	969.00
253.53	882.00
253.79	917.00
254.06	937.00
254.33	911.00
254.60	881.00
254.86	896.00
255.13	944.00
255.40	958.00
255.66	903.00
255.93	933.00
256.20	924.00
256.46	929.00
256.73	897.00
257.00	920.00
257.26	930.00
257.53	925.00
257.80	905.00
258.07	926.00
258.33	997.00
258.60	972.00
258.87	891.00
259.13	923.00
259.40	914.00
259.67	946.00
259.93	910.00
260.20	920.00
260.47	942.00
260.73	925.00
261.00	902.00
261.27	931.00
261.53	956.00
261.80	949.00
262.07	873.00
262.34	904.00
262.60	897.00
262.87	915.00
263.14	896.00
263.40	937.00
263.67	911.00
263.94	939.00
264.20	903.00
264.47	877.00
264.74	897.00
265.00	918.00
265.27	880.00
265.54	905.00
265.80	934.00
266.07	949.00
266.34	902.00
266.60	906.00
266.87	937.00
267.14	940.00
267.40	900.00
267.67	893.00
267.94	942.00
268.20	914.00
268.47	868.00
268.74	901.00
269.00	939.00
269.27	907.00
269.54	862.00
269.80	886.00
270.07	945.00
270.33	901.00
270.60	896.00
270.87	920.00
271.13	909.00
271.40	921.00
271.67	867.00
271.93	870.00
272.20	930.00
272.47	911.00
272.73	866.00
273.00	891.00
273.27	920.00
273.53	953.00
273.80	897.00
274.07	884.00
274.33	889.00
274.60	926.00
274.86	891.00
275.13	909.00
275.40	915.00
275.66	948.00
275.93	901.00
276.20	897.00
276.46	898.00
276.73	904.00
277.00	896.00
277.26	909.00
277.53	939.00
277.79	917.00
278.06	877.00
278.33	939.00
278.59	937.00
278.86	920.00
279.13	900.00
279.39	905.00
279.66	915.00
279.93	932.00
280.19	877.00
280.46	892.00
280.72	908.00
280.99	935.00
281.26	901.00
281.52	881.00
281.79	908.00
282.05	923.00
282.32	898.00
282.59	909.00
282.85	941.00
283.12	945.00
283.39	911.00
283.65	922.00
283.92	925.00
284.18	948.00
284.45	898.00
284.72	904.00
284.98	915.00
285.25	899.00
285.51	917.00
285.78	921.00
286.05	910.00
286.31	922.00
286.58	874.00
286.84	872.00
287.11	916.00
287.38	922.00
287.64	904.00
287.91	893.00
288.17	923.00
288.44	933.00
288.71	883.00
288.97	902.00
289.24	932.00
289.50	915.00
289.77	912.00
290.04	875.00
290.30	882.00
290.57	933.00
290.83	873.00
291.10	887.00
291.37	924.00
291.63	913.00
291.90	923.00
292.16	916.00
292.43	913.00
292.70	913.00
292.96	862.00
293.23	886.00
293.49	897.00
293.76	921.00
294.02	882.00
294.29	884.00
294.56	920.00
294.82	938.00
295.09	901.00
295.35	879.00
295.62	925.00
295.89	947.00
296.15	890.00
296.42	887.00
296.68	906.00
296.95	906.00
297.21	901.00
297.48	900.00
297.75	911.00
298.01	940.00
298.28	883.00
298.54	922.00
298.81	920.00
299.07	925.00
299.34	882.00
299.61	884.00
299.87	932.00
300.14	912.00
300.40	914.00
300.67	913.00
300.93	917.00
301.20	956.00
301.46	889.00
301.73	898.00
302.00	917.00
302.26	925.00
302.53	919.00
302.79	909.00
303.06	934.00
303.32	959.00
303.59	881.00
303.85	861.00
304.12	904.00
304.39	913.00
304.65	885.00
304.92	899.00
305.18	910.00
305.45	938.00
305.71	887.00
305.98	918.00
306.24	899.00
306.51	913.00
306.77	894.00
307.04	907.00
307.31	948.00
307.57	944.00
307.84	869.00
308.10	872.00
308.37	880.00
308.63	911.00
308.90	905.00
309.16	908.00
309.43	946.00
309.69	920.00
309.96	918.00
310.22	891.00
310.49	908.00
310.76	934.00
311.02	887.00
311.29	889.00
311.55	905.00
311.82	926.00
312.08	902.00
312.35	923.00
312.61	924.00
312.88	925.00
313.14	879.00
313.41	879.00
313.67	888.00
313.94	917.00
314.20	911.00
314.47	906.00
314.73	894.00
315.00	886.00
315.26	871.00
315.53	933.00
315.79	947.00
316.06	926.00
316.32	901.00
316.59	906.00
316.85	908.00
317.12	933.00
317.39	876.00
317.65	898.00
317.92	918.00
318.18	941.00
318.45	899.00
318.71	940.00
318.98	954.00
319.24	926.00
319.51	901.00
319.77	894.00
320.04	915.00
320.30	915.00
320.57	901.00
320.83	883.00
321.10	881.00
321.36	916.00
321.63	875.00
321.89	879.00
322.16	946.00
322.42	930.00
322.69	878.00
322.95	886.00
323.22	935.00
323.48	929.00
323.75	896.00
324.01	909.00
324.28	917.00
324.54	945.00
324.80	908.00
325.07	929.00
325.33	929.00
325.60	908.00
325.86	874.00
326.13	894.00
326.39	925.00
326.66	903.00
326.92	841.00
327.19	881.00
327.45	938.00
327.72	948.00
327.98	882.00
328.25	896.00
328.51	910.00
328.78	909.00
329.04	886.00
329.31	910.00
329.57	916.00
329.84	904.00
330.10	884.00
330.37	892.00
330.63	947.00
330.89	955.00
331.16	895.00
331.42	909.00
331.69	938.00
331.95	918.00
332.22	894.00
332.48	942.00
332.75	938.00
333.01	891.00
333.28	889.00
333.54	898.00
333.81	904.00
334.07	921.00
334.34	917.00
334.60	909.00
334.86	944.00
335.13	955.00
335.39	910.00
335.66	910.00
335.92	934.00
336.19	950.00
336.45	855.00
336.72	888.00
336.98	910.00
337.24	937.00
337.51	883.00
337.77	906.00
338.04	929.00
338.30	923.00
338.57	896.00
338.83	907.00
339.10	915.00
339.36	913.00
339.63	883.00
339.89	854.00
340.15	884.00
340.42	927.00
340.68	901.00
340.95	912.00
341.21	907.00
341.48	905.00
341.74	862.00
342.00	869.00
342.27	918.00
342.53	917.00
342.80	886.00
343.06	897.00
343.33	907.00
343.59	921.00
343.85	890.00
344.12	903.00
344.38	964.00
344.65	936.00
344.91	884.00
345.18	878.00
345.44	884.00
345.70	906.00
345.97	847.00
346.23	883.00
346.50	933.00
346.76	923.00
347.03	893.00
347.29	901.00
347.55	908.00
347.82	906.00
348.08	866.00
348.35	883.00
348.61	963.00
348.87	953.00
349.14	878.00
349.40	877.00
349.67	920.00
349.93	910.00
350.20	906.00
350.46	907.00
350.72	952.00
350.99	920.00
351.25	901.00
351.52	896.00
351.78	890.00
352.04	919.00
352.31	892.00
352.57	888.00
352.84	879.00
353.10	907.00
353.36	894.00
353.63	886.00
353.89	922.00
354.16	955.00
354.42	912.00
354.68	915.00
354.95	954.00
355.21	933.00
355.48	883.00
355.74	927.00
356.00	950.00
356.27	952.00
356.53	893.00
356.80	885.00
357.06	919.00
357.32	931.00
357.59	899.00
357.85	920.00
358.11	950.00
358.38	924.00
358.64	891.00
358.91	903.00
359.17	900.00
359.43	936.00
359.70	894.00
359.96	909.00
360.22	946.00
360.49	938.00
360.75	903.00
361.02	868.00
361.28	892.00
361.54	913.00
361.81	874.00
362.07	897.00
362.33	886.00
362.60	899.00
362.86	886.00
363.13	917.00
363.39	927.00
363.65	934.00
363.92	849.00
364.18	851.00
364.44	903.00
364.71	916.00
364.97	896.00
365.24	914.00
365.50	921.00
365.76	923.00
366.03	899.00
366.29	903.00
366.55	927.00
366.82	916.00
367.08	871.00
367.34	898.00
367.61	920.00
367.87	912.00
368.13	902.00
368.40	904.00
368.66	962.00
368.93	941.00
369.19	871.00
369.45	890.00
369.72	933.00
369.98	924.00
370.24	867.00
370.51	883.00
370.77	918.00
371.03	918.00
371.30	918.00
371.56	929.00
371.82	936.00
372.09	925.00
372.35	918.00
372.61	907.00
372.88	922.00
373.14	918.00
373.40	908.00
373.67	911.00
373.93	910.00
374.19	933.00
374.46	881.00
374.72	875.00
374.98	924.00
375.25	922.00
375.51	922.00
375.77	923.00
376.04	925.00
376.30	949.00
376.56	867.00
376.83	884.00
377.09	917.00
377.35	920.00
377.62	914.00
377.88	894.00
378.14	904.00
378.41	920.00
378.67	900.00
378.93	881.00
379.20	920.00
379.46	903.00
379.72	891.00
379.99	894.00
380.25	905.00
380.51	887.00
380.77	869.00
381.04	923.00
381.30	935.00
381.56	956.00
381.83	918.00
382.09	892.00
382.35	900.00
382.62	925.00
382.88	913.00
383.14	909.00
383.41	907.00
383.67	882.00
383.93	894.00
384.20	905.00
384.46	918.00
384.72	928.00
384.98	867.00
385.25	897.00
385.51	940.00
385.77	915.00
386.04	885.00
386.30	859.00
386.56	931.00
386.82	967.00
387.09	898.00
387.35	923.00
387.61	981.00
387.88	922.00
388.14	901.00
388.40	916.00
388.67	922.00
388.93	925.00
389.19	895.00
389.45	878.00
389.72	906.00
389.98	937.00
390.24	907.00
390.51	895.00
390.77	935.00
391.03	946.00
391.29	892.00
391.56	908.00
391.82	925.00
392.08	961.00
392.35	892.00
392.61	886.00
392.87	927.00
393.13	949.00
393.40	881.00
393.66	883.00
393.92	913.00
394.18	910.00
394.45	859.00
394.71	884.00
394.97	909.00
395.24	889.00
395.50	872.00
395.76	922.00
396.02	926.00
396.29	918.00
396.55	862.00
396.81	857.00
397.07	902.00
397.34	891.00
397.60	863.00
397.86	879.00
398.12	904.00
398.39	918.00
398.65	900.00
398.91	902.00
399.17	913.00
399.44	870.00
399.70	849.00
399.96	879.00
400.22	889.00
400.49	937.00
400.75	900.00
401.01	866.00
401.27	882.00
401.54	939.00
401.80	904.00
402.06	869.00
402.32	927.00
402.59	919.00
402.85	886.00
403.11	894.00
403.37	913.00
403.64	924.00
403.90	869.00
404.16	881.00
404.42	903.00
404.69	909.00
404.95	890.00
405.21	854.00
405.47	898.00
405.74	931.00
406.00	888.00
406.26	894.00
406.52	920.00
406.79	935.00
407.05	876.00
407.31	901.00
407.57	894.00
407.83	908.00
408.10	857.00
408.36	882.00
408.62	901.00
408.88	901.00
409.15	881.00
409.41	848.00
409.67	890.00
409.93	935.00
410.20	897.00
410.46	893.00
410.72	900.00
410.98	905.00
411.24	874.00
411.51	883.00
411.77	891.00
412.03	922.00
412.29	921.00
412.55	926.00
412.82	905.00
413.08	920.00
413.34	900.00
413.60	894.00
413.87	893.00
414.13	914.00
414.39	872.00
414.65	892.00
414.91	915.00
415.18	893.00
415.44	859.00
415.70	876.00
415.96	910.00
416.22	903.00
416.49	882.00
416.75	891.00
417.01	918.00
417.27	899.00
417.53	884.00
417.80	886.00
418.06	925.00
418.32	931.00
418.58	889.00
418.84	891.00
419.11	908.00
419.37	909.00
419.63	861.00
419.89	874.00
420.15	907.00
420.42	912.00
420.68	877.00
420.94	899.00
421.20	911.00
421.46	924.00
421.72	899.00
421.99	897.00
422.25	886.00
422.51	911.00
422.77	897.00
423.03	902.00
423.30	906.00
423.56	947.00
423.82	924.00
424.08	914.00
424.34	898.00
424.60	918.00
424.87	881.00
425.13	886.00
425.39	900.00
425.65	888.00
425.91	875.00
426.18	905.00
426.44	922.00
426.70	874.00
426.96	839.00
427.22	849.00
427.48	876.00
427.75	903.00
428.01	857.00
428.27	894.00
428.53	931.00
428.79	914.00
429.05	869.00
429.32	881.00
429.58	933.00
429.84	912.00
430.10	902.00
430.36	904.00
430.62	921.00
430.88	924.00
431.15	891.00
431.41	892.00
431.67	910.00
431.93	899.00
432.19	848.00
432.45	875.00
432.72	878.00
432.98	897.00
433.24	917.00
433.50	995.00
433.76	916.00
434.02	898.00
434.28	857.00
434.55	875.00
434.81	922.00
435.07	912.00
435.33	854.00
435.59	864.00
435.85	894.00
436.11	902.00
436.38	884.00
436.64	878.00
436.90	892.00
437.16	898.00
437.42	873.00
437.68	897.00
437.94	932.00
438.21	933.00
438.47	922.00
438.73	905.00
438.99	889.00
439.25	900.00
439.51	874.00
439.77	889.00
440.03	908.00
440.30	918.00
440.56	894.00
440.82	922.00
441.08	923.00
441.34	905.00
441.60	873.00
441.86	886.00
442.12	909.00
442.39	899.00
442.65	886.00
442.91	886.00
443.17	893.00
443.43	915.00
443.69	886.00
443.95	881.00
444.21	908.00
444.47	925.00
444.74	876.00
445.00	894.00
445.26	900.00
445.52	914.00
445.78	867.00
446.04	865.00
446.30	937.00
446.56	926.00
446.82	867.00
447.09	898.00
447.35	904.00
447.61	908.00
447.87	878.00
448.13	907.00
448.39	951.00
448.65	932.00
448.91	887.00
449.17	864.00
449.43	883.00
449.70	902.00
449.96	860.00
450.22	864.00
450.48	898.00
450.74	933.00
451.00	880.00
451.26	865.00
451.52	902.00
451.78	887.00
452.04	881.00
452.31	896.00
452.57	922.00
452.83	908.00
453.09	879.00
453.35	899.00
453.61	906.00
453.87	910.00
454.13	909.00
454.39	921.00
454.65	960.00
454.91	949.00
455.17	886.00
455.44	890.00
455.70	892.00
455.96	896.00
456.22	854.00
456.48	883.00
456.74	905.00
457.00	877.00
457.26	839.00
457.52	869.00
457.78	903.00
458.04	906.00
458.30	856.00
458.56	887.00
458.82	900.00
459.09	890.00
459.35	847.00
459.61	872.00
459.87	919.00
460.13	929.00
460.39	876.00
460.65	858.00
460.91	906.00
461.17	895.00
461.43	848.00
461.69	856.00
461.95	907.00
462.21	910.00
462.47	908.00
462.73	926.00
462.99	933.00
463.26	904.00
463.52	861.00
463.78	862.00
464.04	877.00
464.30	891.00
464.56	867.00
464.82	883.00
465.08	924.00
465.34	917.00
465.60	897.00
465.86	890.00
466.12	907.00
466.38	888.00
466.64	871.00
466.90	878.00
467.16	905.00
467.42	931.00
467.68	875.00
467.94	897.00
468.20	931.00
468.46	908.00
468.72	876.00
468.98	910.00
469.25	921.00
469.51	882.00
469.77	903.00
470.03	898.00
470.29	900.00
470.55	912.00
470.81	885.00
471.07	905.00
471.33	929.00
471.59	921.00
471.85	899.00
472.11	912.00
472.37	928.00
472.63	895.00
472.89	904.00
473.15	884.00
473.41	907.00
473.67	905.00
473.93	844.00
474.19	858.00
474.45	883.00
474.71	910.00
474.97	853.00
475.23	859.00
475.49	874.00
475.75	890.00
476.01	889.00
476.27	910.00
476.53	920.00
476.79	907.00
477.05	879.00
477.31	889.00
477.57	892.00
477.83	897.00
478.09	855.00
478.35	882.00
478.61	945.00
478.87	915.00
479.13	862.00
479.39	909.00
479.65	932.00
479.91	916.00
480.17	888.00
480.43	918.00
480.69	905.00
480.95	909.00
481.21	892.00
481.47	886.00
481.73	902.00
481.99	899.00
482.25	880.00
482.51	871.00
482.77	917.00
483.03	923.00
483.29	895.00
483.55	883.00
483.81	914.00
484.07	911.00
484.33	870.00
484.59	868.00
484.85	908.00
485.11	914.00
485.37	876.00
485.63	865.00
485.89	898.00
486.15	878.00
486.41	845.00
486.67	886.00
486.93	903.00
487.19	872.00
487.45	874.00
487.71	876.00
487.97	921.00
488.23	915.00
488.49	868.00
488.75	863.00
489.01	914.00
489.27	924.00
489.53	863.00
489.79	881.00
490.05	905.00
490.31	912.00
490.57	895.00
490.83	934.00
491.08	893.00
491.34	893.00
491.60	865.00
491.86	893.00
492.12	942.00
492.38	933.00
492.64	861.00
492.90	865.00
493.16	924.00
493.42	888.00
493.68	860.00
493.94	895.00
494.20	876.00
494.46	901.00
494.72	873.00
494.98	870.00
495.24	879.00
495.50	896.00
495.76	905.00
496.02	902.00
496.28	920.00
496.54	916.00
496.80	878.00
497.05	850.00
497.31	910.00
497.57	917.00
497.83	863.00
498.09	892.00
498.35	932.00
498.61	905.00
498.87	895.00
499.13	884.00
499.39	898.00
499.65	896.00
499.91	904.00
500.17	883.00
500.43	961.00
500.69	984.00
500.95	884.00
501.20	910.00
501.46	923.00
501.72	921.00
501.98	908.00
502.24	914.00
502.50	936.00
502.76	908.00
503.02	874.00
503.28	898.00
503.54	940.00
503.80	939.00
504.06	904.00
504.32	929.00
504.58	924.00
504.83	911.00
505.09	857.00
505.35	896.00
505.61	886.00
505.87	881.00
506.13	883.00
506.39	874.00
506.65	933.00
506.91	938.00
507.17	884.00
507.43	879.00
507.68	896.00
507.94	919.00
508.20	888.00
508.46	867.00
508.72	934.00
508.98	943.00
509.24	884.00
509.50	905.00
509.76	884.00
510.02	889.00
510.28	872.00
510.53	892.00
510.79	919.00
511.05	911.00
511.31	881.00
511.57	890.00
511.83	905.00
512.09	925.00
512.35	883.00
512.61	890.00
512.87	915.00
513.12	921.00
513.38	870.00
513.64	886.00
513.90	903.00
514.16	947.00
514.42	906.00
514.68	898.00
514.94	937.00
515.20	927.00
515.45	877.00
515.71	885.00
515.97	887.00
516.23	879.00
516.49	855.00
516.75	877.00
517.01	902.00
517.27	891.00
517.53	866.00
517.78	891.00
518.04	886.00
518.30	883.00
518.56	861.00
518.82	904.00
519.08	945.00
519.34	883.00
519.60	867.00
519.85	889.00
520.11	909.00
520.37	894.00
520.63	863.00
520.89	897.00
521.15	909.00
521.41	905.00
521.66	884.00
521.92	894.00
522.18	922.00
522.44	919.00
522.70	881.00
522.96	865.00
523.22	910.00
523.48	894.00
523.73	884.00
523.99	882.00
524.25	937.00
524.51	903.00
524.77	876.00
525.03	878.00
525.29	908.00
525.54	908.00
525.80	875.00
526.06	879.00
526.32	887.00
526.58	905.00
526.84	891.00
527.09	882.00
527.35	881.00
527.61	872.00
527.87	862.00
528.13	906.00
528.39	880.00
528.65	881.00
528.90	836.00
529.16	868.00
529.42	864.00
529.68	882.00
529.94	861.00
530.20	890.00
530.45	874.00
530.71	903.00
530.97	860.00
531.23	898.00
531.49	914.00
531.75	897.00
532.00	864.00
532.26	872.00
532.52	921.00
532.78	886.00
533.04	872.00
533.30	885.00
533.55	915.00
533.81	906.00
534.07	847.00
534.33	872.00
534.59	933.00
534.85	925.00
535.10	869.00
535.36	882.00
535.62	880.00
535.88	884.00
536.14	851.00
536.39	865.00
536.65	927.00
536.91	924.00
537.17	862.00
537.43	876.00
537.69	932.00
537.94	922.00
538.20	862.00
538.46	885.00
538.72	923.00
538.98	909.00
539.23	866.00
539.49	845.00
539.75	912.00
540.01	892.00
540.27	874.00
540.52	936.00
540.78	924.00
541.04	915.00
541.30	874.00
541.56	858.00
541.81	943.00
542.07	981.00
542.33	900.00
542.59	869.00
542.85	889.00
543.10	897.00
543.36	852.00
543.62	906.00
543.88	902.00
544.14	887.00
544.39	868.00
544.65	895.00
544.91	941.00
545.17	909.00
545.43	881.00
545.68	871.00
545.94	910.00
546.20	920.00
546.46	868.00
546.71	874.00
546.97	898.00
547.23	907.00
547.49	878.00
547.75	877.00
548.00	904.00
548.26	910.00
548.52	877.00
548.78	864.00
549.03	890.00
549.29	882.00
549.55	846.00
549.81	882.00
550.07	919.00
550.32	912.00
550.58	867.00
550.84	900.00
551.10	900.00
551.35	893.00
551.61	869.00
551.87	899.00
552.13	928.00
552.39	893.00
552.64	851.00
552.90	856.00
553.16	910.00
553.42	910.00
553.67	861.00
553.93	881.00
554.19	918.00
554.45	920.00
554.70	867.00
554.96	852.00
555.22	889.00
555.48	911.00
555.73	874.00
555.99	884.00
556.25	910.00
556.51	902.00
556.76	868.00
557.02	900.00
557.28	941.00
557.54	899.00
557.79	857.00
558.05	897.00
558.31	888.00
558.57	908.00
558.82	861.00
559.08	848.00
559.34	869.00
559.60	902.00
559.85	892.00
560.11	890.00
560.37	890.00
560.63	872.00
560.88	841.00
561.14	865.00
561.40	912.00
561.66	871.00
561.91	873.00
562.17	886.00
562.43	914.00
562.68	923.00
562.94	888.00
563.20	895.00
563.46	923.00
563.71	929.00
563.97	876.00
564.23	884.00
564.49	918.00
564.74	902.00
565.00	858.00
565.26	858.00
565.51	869.00
565.77	876.00
566.03	870.00
566.29	886.00
566.54	870.00
566.80	877.00
567.06	874.00
567.31	892.00
567.57	934.00
567.83	898.00
568.09	877.00
568.34	882.00
568.60	897.00
568.86	927.00
569.11	895.00
569.37	874.00
569.63	912.00
569.89	901.00
570.14	840.00
570.40	877.00
570.66	890.00
570.91	873.00
571.17	852.00
571.43	895.00
571.69	920.00
571.94	921.00
572.20	859.00
572.46	862.00
572.71	889.00
572.97	906.00
573.23	865.00
573.48	867.00
573.74	883.00
574.00	912.00
574.26	873.00
574.51	870.00
574.77	901.00
575.03	894.00
575.28	878.00
575.54	856.00
575.80	872.00
576.05	899.00
576.31	853.00
576.57	860.00
576.82	908.00
577.08	894.00
577.34	857.00
577.59	873.00
577.85	916.00
578.11	878.00
578.37	849.00
578.62	864.00
578.88	924.00
579.14	913.00
579.39	877.00
579.65	893.00
579.91	904.00
580.16	915.00
580.42	891.00
580.68	890.00
580.93	928.00
581.19	884.00
581.45	860.00
581.70	879.00
581.96	901.00
582.22	924.00
582.47	886.00
582.73	896.00
582.99	930.00
583.24	916.00
583.50	862.00
583.76	875.00
584.01	890.00
584.27	906.00
584.53	885.00
584.78	874.00
585.04	885.00
585.30	904.00
585.55	901.00
585.81	873.00
586.07	926.00
586.32	915.00
586.58	863.00
586.83	882.00
587.09	904.00
587.35	914.00
587.60	871.00
587.86	883.00
588.12	884.00
588.37	915.00
588.63	891.00
588.89	898.00
589.14	921.00
589.40	912.00
589.66	868.00
589.91	898.00
590.17	902.00
590.43	861.00
590.68	860.00
590.94	899.00
591.19	897.00
591.45	893.00
591.71	860.00
591.96	891.00
592.22	908.00
592.48	920.00
592.73	854.00
592.99	878.00
593.25	906.00
593.50	911.00
593.76	854.00
594.01	888.00
594.27	909.00
594.53	894.00
594.78	873.00
595.04	879.00
595.30	899.00
595.55	897.00
595.81	867.00
596.06	914.00
596.32	936.00
596.58	892.00
596.83	876.00
597.09	913.00
597.35	919.00
597.60	884.00
597.86	858.00
598.11	877.00
598.37	920.00
598.63	903.00
598.88	872.00
599.14	869.00
599.39	918.00
599.65	912.00
599.91	837.00
600.16	869.00
600.42	908.00
600.67	935.00
600.93	883.00
601.19	893.00
601.44	948.00
601.70	933.00
601.95	862.00
602.21	875.00
602.47	884.00
602.72	912.00
602.98	863.00
603.23	902.00
603.49	917.00
603.75	923.00
604.00	886.00
604.26	878.00
604.51	896.00
604.77	930.00
605.03	873.00
605.28	888.00
605.54	944.00
605.79	955.00
606.05	860.00
606.31	886.00
606.56	916.00
606.82	935.00
607.07	897.00
607.33	917.00
607.59	920.00
607.84	912.00
608.10	882.00
608.35	884.00
608.61	925.00
608.86	937.00
609.12	920.00
609.38	938.00
609.63	950.00
609.89	944.00
610.14	874.00
610.40	892.00
610.65	915.00
610.91	908.00
611.17	896.00
611.42	920.00
611.68	937.00
611.93	953.00
612.19	933.00
612.44	933.00
612.70	943.00
612.96	911.00
613.21	901.00
613.47	912.00
613.72	925.00
613.98	935.00
614.23	916.00
614.49	936.00
614.75	958.00
615.00	957.00
615.26	948.00
615.51	915.00
615.77	940.00
616.02	982.00
616.28	914.00
616.53	922.00
616.79	950.00
617.05	960.00
617.30	927.00
617.56	936.00
617.81	964.00
618.07	956.00
618.32	934.00
618.58	997.00
618.83	1002.00
619.09	1005.00
619.34	966.00
619.60	980.00
619.86	1027.00
620.11	1060.00
620.37	1008.00
620.62	1001.00
620.88	1014.00
621.13	1022.00
621.39	997.00
621.64	1023.00
621.90	1056.00
622.15	1014.00
622.41	997.00
622.66	1046.00
622.92	1061.00
623.18	1056.00
623.43	990.00
623.69	1037.00
623.94	1060.00
624.20	1070.00
624.45	1069.00
624.71	1085.00
624.96	1092.00
625.22	1129.00
625.47	1086.00
625.73	1090.00
625.98	1109.00
626.24	1097.00
626.49	1087.00
626.75	1134.00
627.00	1179.00
627.26	1196.00
627.51	1204.00
627.77	1184.00
628.02	1177.00
628.28	1196.00
628.53	1184.00
628.79	1235.00
629.05	1230.00
629.30	1212.00
629.56	1209.00
629.81	1273.00
630.07	1294.00
630.32	1326.00
630.58	1301.00
630.83	1276.00
631.09	1290.00
631.34	1338.00
631.60	1356.00
631.85	1356.00
632.11	1369.00
632.36	1341.00
632.62	1313.00
632.87	1387.00
633.13	1450.00
633.38	1457.00
633.64	1428.00
633.89	1474.00
634.15	1515.00
634.40	1495.00
634.66	1415.00
634.91	1444.00
635.17	1509.00
635.42	1542.00
635.68	1442.00
635.93	1387.00
636.18	1455.00
636.44	1478.00
636.69	1460.00
636.95	1505.00
637.20	1590.00
637.46	1599.00
637.71	1532.00
637.97	1531.00
638.22	1493.00
638.48	1487.00
638.73	1548.00
638.99	1632.00
639.24	1662.00
639.50	1612.00
639.75	1504.00
640.01	1445.00
640.26	1463.00
640.52	1480.00
640.77	1447.00
641.03	1444.00
641.28	1502.00
641.54	1491.00
641.79	1408.00
642.04	1358.00
642.30	1350.00
642.55	1347.00
642.81	1291.00
643.06	1307.00
643.32	1345.00
643.57	1345.00
643.83	1265.00
644.08	1208.00
644.34	1210.00
644.59	1228.00
644.85	1157.00
645.10	1177.00
645.35	1174.00
645.61	1153.00
645.86	1124.00
646.12	1104.00
646.37	1124.00
646.63	1084.00
646.88	1007.00
647.14	1038.00
647.39	1078.00
647.65	1094.00
647.90	1004.00
648.15	1008.00
648.41	1013.00
648.66	1023.00
648.92	974.00
649.17	997.00
649.43	1004.00
649.68	993.00
649.94	978.00
650.19	960.00
650.44	977.00
650.70	970.00
650.95	931.00
651.21	978.00
651.46	993.00
651.72	977.00
651.97	955.00
652.23	953.00
652.48	950.00
652.73	959.00
652.99	944.00
653.24	955.00
653.50	953.00
653.75	939.00
654.01	913.00
654.26	931.00
654.51	942.00
654.77	954.00
655.02	940.00
655.28	914.00
655.53	901.00
655.79	935.00
656.04	924.00
656.29	913.00
656.55	904.00
656.80	926.00
657.06	873.00
657.31	888.00
657.56	900.00
657.82	912.00
658.07	865.00
658.33	898.00
658.58	910.00
658.84	921.00
659.09	881.00
659.34	903.00
659.60	902.00
659.85	892.00
660.11	872.00
660.36	894.00
660.61	886.00
660.87	876.00
661.12	844.00
661.38	893.00
661.63	889.00
661.88	904.00
662.14	898.00
662.39	897.00
662.65	923.00
662.90	946.00
663.15	874.00
663.41	876.00
663.66	939.00
663.92	949.00
664.17	881.00
664.42	899.00
664.68	920.00
664.93	891.00
665.19	865.00
665.44	886.00
665.69	873.00
665.95	900.00
666.20	872.00
666.45	915.00
666.71	899.00
666.96	902.00
667.22	855.00
667.47	875.00
667.72	869.00
667.98	897.00
668.23	860.00
668.49	895.00
668.74	917.00
668.99	919.00
669.25	870.00
669.50	876.00
669.75	896.00
670.01	903.00
670.26	860.00
670.52	874.00
670.77	919.00
671.02	894.00
671.28	868.00
671.53	889.00
671.78	922.00
672.04	900.00
672.29	869.00
672.54	867.00
672.80	884.00
673.05	879.00
673.31	859.00
673.56	895.00
673.81	937.00
674.07	913.00
674.32	886.00
674.57	892.00
674.83	887.00
675.08	912.00
675.33	883.00
675.59	882.00
675.84	911.00
676.09	889.00
676.35	881.00
676.60	897.00
676.86	918.00
677.11	938.00
677.36	889.00
677.62	892.00
677.87	926.00
678.12	933.00
678.38	865.00
678.63	893.00
678.88	914.00
679.14	931.00
679.39	843.00
679.64	891.00
679.90	889.00
680.15	901.00
680.40	886.00
680.66	869.00
680.91	886.00
681.16	906.00
681.42	873.00
681.67	876.00
681.92	888.00
682.18	913.00
682.43	867.00
682.68	863.00
682.94	898.00
683.19	876.00
683.44	865.00
683.70	890.00
683.95	904.00
684.20	893.00
684.46	891.00
684.71	895.00
684.96	905.00
685.22	907.00
685.47	890.00
685.72	900.00
685.98	920.00
686.23	871.00
686.48	860.00
686.74	883.00
686.99	947.00
687.24	907.00
687.50	866.00
687.75	881.00
688.00	907.00
688.25	908.00
688.51	885.00
688.76	919.00
689.01	886.00
689.27	882.00
689.52	840.00
689.77	882.00
690.03	868.00
690.28	870.00
690.53	864.00
690.79	893.00
691.04	898.00
691.29	893.00
691.54	845.00
691.80	889.00
692.05	899.00
692.30	903.00
692.56	874.00
692.81	893.00
693.06	887.00
693.32	876.00
693.57	880.00
693.82	895.00
694.07	892.00
694.33	899.00
694.58	859.00
694.83	889.00
695.09	887.00
695.34	912.00
695.59	890.00
695.84	886.00
696.10	910.00
696.35	906.00
696.60	845.00
696.86	872.00
697.11	897.00
697.36	902.00
697.61	841.00
697.87	878.00
698.12	885.00
698.37	889.00
698.63	900.00
698.88	888.00
699.13	912.00
699.38	910.00
699.64	880.00
699.89	873.00
700.14	872.00
700.39	875.00
700.65	868.00
700.90	906.00
701.15	881.00
701.40	907.00
701.66	869.00
701.91	881.00
702.16	878.00
702.42	888.00
702.67	830.00
702.92	864.00
703.17	878.00
703.43	888.00
703.68	881.00
703.93	912.00
704.18	920.00
704.44	891.00
704.69	869.00
704.94	886.00
705.19	890.00
705.45	909.00
705.70	875.00
705.95	860.00
706.20	881.00
706.46	928.00
706.71	873.00
706.96	868.00
707.21	890.00
707.47	894.00
707.72	884.00
707.97	881.00
708.22	912.00
708.48	918.00
708.73	880.00
708.98	850.00
709.23	893.00
709.49	899.00
709.74	862.00
709.99	883.00
710.24	900.00
710.50	893.00
710.75	881.00
711.00	902.00
711.25	881.00
711.50	903.00
711.76	859.00
712.01	865.00
712.26	862.00
712.51	885.00
712.77	857.00
713.02	868.00
713.27	856.00
713.52	869.00
713.78	878.00
714.03	902.00
714.28	886.00
714.53	899.00
714.78	875.00
715.04	914.00
715.29	914.00
715.54	916.00
715.79	868.00
716.05	896.00
716.30	913.00
716.55	907.00
716.80	880.00
717.05	889.00
717.31	899.00
717.56	885.00
717.81	862.00
718.06	876.00
718.31	878.00
718.57	905.00
718.82	860.00
719.07	912.00
719.32	874.00
719.57	890.00
719.83	859.00
720.08	894.00
720.33	885.00
720.58	870.00
720.83	836.00
721.09	899.00
721.34	904.00
721.59	913.00
721.84	852.00
722.09	876.00
722.35	886.00
722.60	882.00
722.85	858.00
723.10	873.00
723.35	877.00
723.61	904.00
723.86	896.00
724.11	894.00
724.36	887.00
724.61	885.00
724.87	872.00
725.12	861.00
725.37	865.00
725.62	851.00
725.87	856.00
726.12	844.00
726.38	854.00
726.63	895.00
726.88	851.00
727.13	885.00
727.38	890.00
727.64	894.00
727.89	856.00
728.14	868.00
728.39	864.00
728.64	913.00
728.89	872.00
729.15	890.00
729.40	910.00
729.65	909.00
729.90	832.00
730.15	889.00
730.40	900.00
730.66	886.00
730.91	858.00
731.16	871.00
731.41	894.00
731.66	891.00
731.91	879.00
732.17	898.00
732.42	906.00
732.67	882.00
732.92	865.00
733.17	903.00
733.42	912.00
733.68	898.00
733.93	840.00
734.18	881.00
734.43	872.00
734.68	898.00
734.93	861.00
735.18	880.00
735.44	899.00
735.69	909.00
735.94	849.00
736.19	874.00
736.44	889.00
736.69	928.00
736.95	871.00
737.20	895.00
737.45	908.00
737.70	902.00
737.95	888.00
738.20	899.00
738.45	912.00
738.70	889.00
738.96	881.00
739.21	913.00
739.46	910.00
739.71	916.00
739.96	876.00
740.21	912.00
740.46	971.00
740.72	926.00
740.97	867.00
741.22	900.00
741.47	856.00
741.72	893.00
741.97	856.00
742.22	882.00
742.47	889.00
742.73	877.00
742.98	856.00
743.23	868.00
743.48	869.00
743.73	899.00
743.98	876.00
744.23	867.00
744.48	886.00
744.74	880.00
744.99	844.00
745.24	884.00
745.49	885.00
745.74	908.00
745.99	870.00
746.24	883.00
746.49	880.00
746.74	878.00
747.00	873.00
747.25	885.00
747.50	875.00
747.75	883.00
748.00	846.00
748.25	873.00
748.50	878.00
748.75	906.00
749.00	900.00
749.26	914.00
749.51	891.00
749.76	901.00
750.01	852.00
750.26	899.00
750.51	929.00
750.76	901.00
751.01	864.00
751.26	876.00
751.51	909.00
751.77	916.00
752.02	878.00
752.27	853.00
752.52	860.00
752.77	900.00
753.02	874.00
753.27	883.00
753.52	886.00
753.77	875.00
754.02	860.00
754.27	873.00
754.52	878.00
754.78	892.00
755.03	873.00
755.28	878.00
755.53	873.00
755.78	876.00
756.03	838.00
756.28	876.00
756.53	887.00
756.78	895.00
757.03	872.00
757.28	921.00
757.53	912.00
757.79	871.00
758.04	844.00
758.29	916.00
758.54	916.00
758.79	895.00
759.04	852.00
759.29	841.00
759.54	858.00
759.79	884.00
760.04	866.00
760.29	876.00
760.54	882.00
760.79	887.00
761.04	858.00
761.29	872.00
761.55	882.00
761.80	883.00
762.05	854.00
762.30	869.00
762.55	882.00
762.80	904.00
763.05	882.00
763.30	893.00
763.55	904.00
763.80	900.00
764.05	851.00
764.30	893.00
764.55	917.00
764.80	894.00
765.05	857.00
765.30	910.00
765.55	896.00
765.80	882.00
766.05	848.00
766.30	888.00
766.56	902.00
766.81	916.00
767.06	890.00
767.31	890.00
767.56	873.00
767.81	879.00
768.06	852.00
768.31	864.00
768.56	875.00
768.81	925.00
769.06	864.00
769.31	881.00
769.56	887.00
769.81	907.00
770.06	852.00
770.31	867.00
770.56	875.00
770.81	861.00
771.06	846.00
771.31	884.00
771.56	888.00
771.81	898.00
772.06	858.00
772.31	907.00
772.56	899.00
772.81	919.00
773.06	866.00
773.31	888.00
773.56	880.00
773.81	872.00
774.06	860.00
774.31	884.00
774.56	894.00
774.81	909.00
775.06	880.00
775.31	913.00
775.56	910.00
775.81	896.00
776.06	871.00
776.31	885.00
776.56	883.00
776.82	904.00
777.07	868.00
777.32	885.00
777.57	893.00
777.82	929.00
778.07	882.00
778.32	884.00
778.57	898.00
778.82	912.00
779.07	872.00
779.32	863.00
779.57	859.00
779.82	871.00
780.07	864.00
780.32	882.00
780.56	874.00
780.81	920.00
781.06	852.00
781.31	856.00
781.56	907.00
781.81	905.00
782.06	857.00
782.31	898.00
782.56	884.00
782.81	902.00
783.06	862.00
783.31	872.00
783.56	875.00
783.81	899.00
784.06	873.00
784.31	868.00
784.56	846.00
784.81	909.00
785.06	872.00
785.31	892.00
785.56	874.00
785.81	872.00
786.06	834.00
786.31	866.00
786.56	884.00
786.81	894.00
787.06	889.00
787.31	886.00
787.56	886.00
787.81	880.00
788.06	854.00
788.31	875.00
788.56	874.00
788.81	913.00
789.06	886.00
789.31	884.00
789.56	883.00
789.81	890.00
790.06	836.00
790.31	902.00
790.56	878.00
790.80	874.00
791.05	860.00
791.30	860.00
791.55	870.00
791.80	889.00
792.05	873.00
792.30	867.00
792.55	853.00
792.80	888.00
793.05	867.00
793.30	870.00
793.55	876.00
793.80	901.00
794.05	863.00
794.30	875.00
794.55	897.00
794.80	911.00
795.05	855.00
795.30	858.00
795.54	856.00
795.79	892.00
796.04	857.00
796.29	890.00
796.54	892.00
796.79	919.00
797.04	882.00
797.29	883.00
797.54	915.00
797.79	892.00
798.04	860.00
798.29	865.00
798.54	852.00
798.79	867.00
799.04	857.00
799.29	877.00
799.53	893.00
799.78	883.00
800.03	878.00
800.28	868.00
800.53	869.00
800.78	906.00
801.03	860.00
801.28	881.00
801.53	885.00
801.78	904.00
802.03	871.00
802.28	895.00
802.52	896.00
802.77	908.00
803.02	894.00
803.27	897.00
803.52	859.00
803.77	904.00
804.02	906.00
804.27	905.00
804.52	887.00
804.77	897.00
805.02	866.00
805.27	910.00
805.51	880.00
805.76	901.00
806.01	869.00
806.26	868.00
806.51	892.00
806.76	923.00
807.01	882.00
807.26	877.00
807.51	886.00
807.76	873.00
808.00	849.00
808.25	875.00
808.50	899.00
808.75	877.00
809.00	849.00
809.25	892.00
809.50	900.00
809.75	918.00
810.00	873.00
810.24	868.00
810.49	845.00
810.74	863.00
810.99	866.00
811.24	886.00
811.49	892.00
811.74	917.00
811.99	840.00
812.24	887.00
812.48	858.00
812.73	870.00
812.98	825.00
813.23	852.00
813.48	886.00
813.73	873.00
813.98	833.00
814.23	877.00
814.47	859.00
814.72	876.00
814.97	846.00
815.22	888.00
815.47	869.00
815.72	871.00
815.97	836.00
816.22	861.00
816.46	878.00
816.71	890.00
816.96	860.00
817.21	880.00
817.46	845.00
817.71	891.00
817.96	854.00
818.20	854.00
818.45	843.00
818.70	881.00
818.95	841.00
819.20	871.00
819.45	870.00
819.70	878.00
819.94	849.00
820.19	873.00
820.44	873.00
820.69	909.00
820.94	881.00
821.19	890.00
821.44	946.00
821.68	956.00
821.93	883.00
822.18	897.00
822.43	903.00
822.68	902.00
822.93	862.00
823.17	885.00
823.42	908.00
823.67	903.00
823.92	857.00
824.17	869.00
824.42	872.00
824.67	893.00
824.91	873.00
825.16	874.00
825.41	882.00
825.66	873.00
825.91	845.00
826.16	869.00
826.40	869.00
826.65	883.00
826.90	841.00
827.15	860.00
827.40	884.00
827.65	918.00
827.89	834.00
828.14	875.00
828.39	885.00
828.64	890.00
828.89	858.00
829.13	867.00
829.38	876.00
829.63	881.00
829.88	856.00
830.13	870.00
830.38	860.00
830.62	890.00
830.87	865.00
831.12	901.00
831.37	909.00
831.62	924.00
831.86	883.00
832.11	886.00
832.36	858.00
832.61	898.00
832.86	889.00
833.10	890.00
833.35	893.00
833.60	903.00
833.85	864.00
834.10	897.00
834.35	913.00
834.59	908.00
834.84	857.00
835.09	882.00
835.34	866.00
835.59	890.00
835.83	892.00
836.08	896.00
836.33	887.00
836.58	896.00
836.83	863.00
837.07	894.00
837.32	904.00
837.57	878.00
837.82	855.00
838.06	892.00
838.31	904.00
838.56	920.00
838.81	853.00
839.06	885.00
839.30	883.00
839.55	905.00
839.80	854.00
840.05	898.00
840.30	924.00
840.54	936.00
840.79	869.00
841.04	888.00
841.29	902.00
841.53	899.00
841.78	860.00
842.03	852.00
842.28	857.00
842.53	875.00
842.77	877.00
843.02	879.00
843.27	888.00
843.52	893.00
843.76	862.00
844.01	892.00
844.26	889.00
844.51	889.00
844.75	860.00
845.00	854.00
845.25	890.00
845.50	922.00
845.75	866.00
845.99	893.00
846.24	908.00
846.49	900.00
846.74	858.00
846.98	857.00
847.23	861.00
847.48	883.00
847.73	859.00
847.97	876.00
848.22	901.00
848.47	889.00
848.72	862.00
848.96	878.00
849.21	904.00
849.46	871.00
849.71	865.00
849.95	879.00
850.20	866.00
850.45	903.00
850.70	853.00
850.94	882.00
851.19	882.00
851.44	876.00
851.69	844.00
851.93	886.00
852.18	890.00
852.43	891.00
852.68	868.00
852.92	892.00
853.17	921.00
853.42	904.00
853.66	890.00
853.91	896.00
854.16	878.00
854.41	917.00
854.65	866.00
854.90	891.00
855.15	871.00
855.40	898.00
855.64	892.00
855.89	889.00
856.14	882.00
856.39	872.00
856.63	849.00
856.88	863.00
857.13	877.00
857.37	879.00
857.62	853.00
857.87	840.00
858.12	876.00
858.36	886.00
858.61	831.00
858.86	872.00
859.10	893.00
859.35	895.00
859.60	846.00
859.85	826.00
860.09	846.00
860.34	887.00
860.59	870.00
860.83	882.00
861.08	875.00
861.33	915.00
861.58	876.00
861.82	863.00
862.07	891.00
862.32	885.00
862.56	853.00
862.81	870.00
863.06	878.00
863.30	885.00
863.55	889.00
863.80	876.00
864.05	868.00
864.29	884.00
864.54	889.00
864.79	888.00
865.03	891.00
865.28	893.00
865.53	877.00
865.77	860.00
866.02	906.00
866.27	928.00
866.51	878.00
866.76	848.00
867.01	867.00
867.26	894.00
867.50	876.00
867.75	862.00
868.00	900.00
868.24	894.00
868.49	857.00
868.74	870.00
868.98	870.00
869.23	893.00
869.48	880.00
869.72	873.00
869.97	888.00
870.22	901.00
870.46	865.00
870.71	900.00
870.96	905.00
871.20	914.00
871.45	858.00
871.70	882.00
871.94	919.00
872.19	919.00
872.44	891.00
872.68	875.00
872.93	888.00
873.18	893.00
873.42	864.00
873.67	887.00
873.92	909.00
874.16	880.00
874.41	877.00
874.66	895.00
874.90	882.00
875.15	917.00
875.40	896.00
875.64	889.00
875.89	885.00
876.14	904.00
876.38	880.00
876.63	869.00
876.88	887.00
877.12	876.00
877.37	843.00
877.62	876.00
877.86	866.00
878.11	888.00
878.36	849.00
878.60	880.00
878.85	873.00
879.09	895.00
879.34	864.00
879.59	897.00
879.83	909.00
880.08	936.00
880.33	903.00
880.57	896.00
880.82	897.00
881.07	886.00
881.31	873.00
881.56	887.00
881.80	866.00
882.05	889.00
882.30	833.00
882.54	870.00
882.79	905.00
883.04	932.00
883.28	891.00
883.53	887.00
883.77	910.00
884.02	912.00
884.27	866.00
884.51	864.00
884.76	877.00
885.01	893.00
885.25	834.00
885.50	900.00
885.74	883.00
885.99	916.00
886.24	875.00
886.48	868.00
886.73	884.00
886.98	916.00
887.22	896.00
887.47	891.00
887.71	887.00
887.96	883.00
888.21	877.00
888.45	869.00
888.70	889.00
888.94	916.00
889.19	845.00
889.44	861.00
889.68	878.00
889.93	917.00
890.17	880.00
890.42	862.00
890.67	885.00
890.91	955.00
891.16	860.00
891.40	843.00
891.65	868.00
891.90	918.00
892.14	850.00
892.39	888.00
892.63	884.00
892.88	902.00
893.13	879.00
893.37	868.00
893.62	869.00
893.86	920.00
894.11	863.00
894.36	883.00
894.60	874.00
894.85	869.00
895.09	885.00
895.34	913.00
895.59	896.00
895.83	889.00
896.08	853.00
896.32	869.00
896.57	878.00
896.81	882.00
897.06	862.00
897.31	866.00
897.55	881.00
897.80	871.00
898.04	846.00
898.29	874.00
898.53	898.00
898.78	906.00
899.03	876.00
899.27	860.00
899.52	893.00
899.76	909.00
900.01	860.00
900.25	868.00
900.50	886.00
900.75	922.00
900.99	894.00
901.24	944.00
901.48	896.00
901.73	884.00
901.97	858.00
902.22	885.00
902.47	892.00
902.71	884.00
902.96	855.00
903.20	871.00
903.45	895.00
903.69	893.00
903.94	872.00
904.18	844.00
904.43	880.00
904.68	876.00
904.92	843.00
905.17	874.00
905.41	886.00
905.66	906.00
905.90	899.00
906.15	883.00
906.39	877.00
906.64	872.00
906.88	828.00
907.13	871.00
907.38	888.00
907.62	919.00
907.87	869.00
908.11	890.00
908.36	865.00
908.60	897.00
908.85	840.00
909.09	868.00
909.34	874.00
909.58	890.00
909.83	869.00
910.07	871.00
910.32	925.00
910.56	918.00
910.81	870.00
911.06	883.00
911.30	902.00
911.55	891.00
911.79	859.00
912.04	860.00
912.28	866.00
912.53	904.00
912.77	884.00
913.02	891.00
913.26	870.00
913.51	892.00
913.75	864.00
914.00	865.00
914.24	869.00
914.49	879.00
914.73	858.00
914.98	893.00
915.22	908.00
915.47	888.00
915.71	863.00
915.96	887.00
916.20	884.00
916.45	882.00
916.69	878.00
916.94	878.00
917.18	892.00
917.43	896.00
917.67	858.00
917.92	846.00
918.16	902.00
918.41	913.00
918.65	858.00
918.90	853.00
919.14	856.00
919.39	892.00
919.63	868.00
919.88	865.00
920.12	903.00
920.37	897.00
920.61	853.00
920.86	890.00
921.10	889.00
921.35	872.00
921.59	846.00
921.84	874.00
922.08	890.00
922.33	896.00
922.57	857.00
922.82	856.00
923.06	887.00
923.31	899.00
923.55	852.00
923.80	870.00
924.04	867.00
924.29	913.00
924.53	868.00
924.78	874.00
925.02	876.00
925.27	886.00
925.51	873.00
925.76	908.00
926.00	882.00
926.25	880.00
926.49	858.00
926.73	892.00
926.98	889.00
927.22	918.00
927.47	896.00
927.71	881.00
927.96	904.00
928.20	880.00
928.45	884.00
928.69	913.00
928.94	890.00
929.18	889.00
929.43	881.00
929.67	888.00
929.91	887.00
930.16	889.00
930.40	845.00
930.65	851.00
930.89	879.00
931.14	901.00
931.38	877.00
931.63	900.00
931.87	871.00
932.12	898.00
932.36	847.00
932.60	875.00
932.85	909.00
933.09	871.00
933.34	840.00
933.58	890.00
933.83	865.00
934.07	880.00
934.32	859.00
934.56	894.00
934.80	916.00
935.05	934.00
935.29	884.00
935.54	882.00
935.78	881.00
936.03	898.00
936.27	833.00
936.52	871.00
936.76	901.00
937.00	896.00
937.25	869.00
937.49	894.00
937.74	907.00
937.98	900.00
938.23	868.00
938.47	863.00
938.71	866.00
938.96	863.00
939.20	836.00
939.45	850.00
939.69	878.00
939.94	902.00
940.18	852.00
940.42	881.00
940.67	893.00
940.91	886.00
941.16	871.00
941.40	849.00
941.64	877.00
941.89	884.00
942.13	846.00
942.38	887.00
942.62	980.00
942.87	938.00
943.11	881.00
943.35	869.00
943.60	890.00
943.84	915.00
944.09	868.00
944.33	897.00
944.57	916.00
944.82	878.00
945.06	860.00
945.31	883.00
945.55	882.00
945.79	903.00
946.04	864.00
946.28	859.00
946.53	876.00
946.77	897.00
947.01	843.00
947.26	891.00
947.50	885.00
947.75	908.00
947.99	884.00
948.23	907.00
948.48	890.00
948.72	890.00
948.97	872.00
949.21	875.00
949.45	878.00
949.70	905.00
949.94	865.00
950.18	881.00
950.43	886.00
950.67	889.00
950.92	860.00
951.16	868.00
951.40	858.00
951.65	880.00
951.89	893.00
952.13	886.00
952.38	910.00
952.62	895.00
952.87	869.00
953.11	875.00
953.35	912.00
953.60	896.00
953.84	834.00
954.08	836.00
954.33	874.00
954.57	876.00
954.82	867.00
955.06	873.00
955.30	890.00
955.55	888.00
955.79	870.00
956.03	876.00
956.28	878.00
956.52	872.00
956.76	852.00
957.01	882.00
957.25	879.00
957.50	893.00
957.74	842.00
957.98	870.00
958.23	894.00
958.47	893.00
958.71	876.00
958.96	887.00
959.20	916.00
959.44	889.00
959.69	860.00
959.93	890.00
960.17	884.00
960.42	899.00
960.66	869.00
960.90	892.00
961.15	893.00
961.39	904.00
961.64	852.00
961.88	847.00
962.12	894.00
962.37	916.00
962.61	863.00
962.85	860.00
963.10	883.00
963.34	898.00
963.58	856.00
963.83	879.00
964.07	884.00
964.31	903.00
964.56	893.00
964.80	876.00
965.04	880.00
965.29	874.00
965.53	855.00
965.77	853.00
966.02	849.00
966.26	860.00
966.50	844.00
966.74	884.00
966.99	913.00
967.23	906.00
967.47	865.00
967.72	881.00
967.96	880.00
968.20	880.00
968.45	836.00
968.69	849.00
968.93	862.00
969.18	886.00
969.42	892.00
969.66	892.00
969.91	883.00
970.15	896.00
970.39	850.00
970.64	880.00
970.88	881.00
971.12	900.00
971.36	868.00
971.61	877.00
971.85	883.00
972.09	869.00
972.34	865.00
972.58	893.00
972.82	903.00
973.07	901.00
973.31	842.00
973.55	873.00
973.79	904.00
974.04	920.00
974.28	878.00
974.52	863.00
974.77	861.00
975.01	900.00
975.25	862.00
975.50	862.00
975.74	880.00
975.98	905.00
976.22	874.00
976.47	874.00
976.71	878.00
976.95	899.00
977.20	876.00
977.44	871.00
977.68	905.00
977.92	902.00
978.17	865.00
978.41	869.00
978.65	878.00
978.90	866.00
979.14	875.00
979.38	891.00
979.62	868.00
979.87	869.00
980.11	844.00
980.35	879.00
980.59	890.00
980.84	895.00
981.08	868.00
981.32	860.00
981.57	894.00
981.81	905.00
982.05	880.00
982.29	873.00
982.54	883.00
982.78	901.00
983.02	857.00
983.26	870.00
983.51	903.00
983.75	894.00
983.99	840.00
984.23	885.00
984.48	886.00
984.72	915.00
984.96	849.00
985.20	851.00
985.45	930.00
985.69	905.00
985.93	876.00
986.17	911.00
986.42	891.00
986.66	884.00
986.90	830.00
987.14	843.00
987.39	865.00
987.63	854.00
987.87	849.00
988.11	864.00
988.36	897.00
988.60	906.00
988.84	878.00
989.08	854.00
989.33	894.00
989.57	909.00
989.81	866.00
990.05	862.00
990.30	873.00
990.54	849.00
990.78	850.00
991.02	851.00
991.27	877.00
991.51	886.00
991.75	864.00
991.99	902.00
992.23	876.00
992.48	861.00
992.72	842.00
992.96	866.00
993.20	865.00
993.45	892.00
993.69	906.00
993.93	859.00
994.17	884.00
994.41	874.00
994.66	835.00
994.90	857.00
995.14	914.00
995.38	904.00
995.63	870.00
995.87	865.00
996.11	914.00
996.35	910.00
996.59	838.00
996.84	857.00
997.08	891.00
997.32	877.00
997.56	880.00
997.80	850.00
998.05	846.00
998.29	858.00
998.53	829.00
998.77	888.00
999.01	904.00
999.26	897.00
999.50	853.00
999.74	859.00
999.98	894.00
1000.22	893.00
1000.47	850.00
1000.71	850.00
1000.95	888.00
1001.19	903.00
1001.43	875.00
1001.68	869.00
1001.92	881.00
1002.16	873.00
1002.40	844.00
1002.64	884.00
1002.89	891.00
1003.13	883.00
1003.37	866.00
1003.61	846.00
1003.85	877.00
1004.10	887.00
1004.34	874.00
1004.58	852.00
1004.82	896.00
1005.06	887.00
1005.30	872.00
1005.55	857.00
1005.79	883.00
1006.03	891.00
1006.27	865.00
1006.51	871.00
1006.76	889.00
1007.00	901.00
1007.24	880.00
1007.48	873.00
1007.72	901.00
1007.96	902.00
1008.21	878.00
1008.45	887.00
1008.69	892.00
1008.93	913.00
1009.17	864.00
1009.41	889.00
1009.66	908.00
1009.90	865.00
1010.14	846.00
1010.38	872.00
1010.62	898.00
1010.86	914.00
1011.10	878.00
1011.35	857.00
1011.59	873.00
1011.83	856.00
1012.07	832.00
1012.31	882.00
1012.55	882.00
1012.80	893.00
1013.04	878.00
1013.28	888.00
1013.52	877.00
1013.76	898.00
1014.00	846.00
1014.24	866.00
1014.49	893.00
1014.73	925.00
1014.97	891.00
1015.21	881.00
1015.45	908.00
1015.69	885.00
1015.93	875.00
1016.18	876.00
1016.42	905.00
1016.66	908.00
1016.90	862.00
1017.14	863.00
1017.38	878.00
1017.62	879.00
1017.87	858.00
1018.11	866.00
1018.35	883.00
1018.59	897.00
1018.83	837.00
1019.07	870.00
1019.31	897.00
1019.55	926.00
1019.80	870.00
1020.04	873.00
1020.28	890.00
1020.52	890.00
1020.76	850.00
1021.00	854.00
1021.24	873.00
1021.48	863.00
1021.73	868.00
1021.97	879.00
1022.21	882.00
1022.45	893.00
1022.69	863.00
1022.93	853.00
1023.17	892.00
1023.41	924.00
1023.65	870.00
1023.90	904.00
1024.14	888.00
1024.38	874.00
1024.62	841.00
1024.86	872.00
1025.10	892.00
1025.34	865.00
1025.58	842.00
1025.82	852.00
1026.07	909.00
1026.31	905.00
1026.55	856.00
1026.79	859.00
1027.03	888.00
1027.27	895.00
1027.51	844.00
1027.75	814.00
1027.99	843.00
1028.23	905.00
1028.47	885.00
1028.72	845.00
1028.96	867.00
1029.20	901.00
1029.44	881.00
1029.68	897.00
1029.92	875.00
1030.16	894.00
1030.40	858.00
1030.64	855.00
1030.88	864.00
1031.12	872.00
1031.37	835.00
1031.61	881.00
1031.85	903.00
1032.09	894.00
1032.33	861.00
1032.57	902.00
1032.81	868.00
1033.05	908.00
1033.29	886.00
1033.53	856.00
1033.77	944.00
1034.01	930.00
1034.25	888.00
1034.50	885.00
1034.74	899.00
1034.98	913.00
1035.22	878.00
1035.46	875.00
1035.70	908.00
1035.94	911.00
1036.18	867.00
1036.42	868.00
1036.66	869.00
1036.90	874.00
1037.14	852.00
1037.38	859.00
1037.62	912.00
1037.86	900.00
1038.10	880.00
1038.35	870.00
1038.59	901.00
1038.83	914.00
1039.07	887.00
1039.31	890.00
1039.55	869.00
1039.79	884.00
1040.03	845.00
1040.27	853.00
1040.51	897.00
1040.75	920.00
1040.99	870.00
1041.23	871.00
1041.47	869.00
1041.71	903.00
1041.95	877.00
1042.19	873.00
1042.43	914.00
1042.67	908.00
1042.91	882.00
1043.15	869.00
1043.39	928.00
1043.64	897.00
1043.88	875.00
1044.12	876.00
1044.36	934.00
1044.60	922.00
1044.84	892.00
1045.08	897.00
1045.32	896.00
1045.56	889.00
1045.80	864.00
1046.04	874.00
1046.28	916.00
1046.52	902.00
1046.76	860.00
1047.00	856.00
1047.24	911.00
1047.48	880.00
1047.72	865.00
1047.96	868.00
1048.20	901.00
1048.44	897.00
1048.68	846.00
1048.92	873.00
1049.16	889.00
1049.40	883.00
1049.64	852.00
1049.88	878.00
1050.12	901.00
1050.36	926.00
1050.60	876.00
1050.84	870.00
1051.08	884.00
1051.32	871.00
1051.56	880.00
1051.80	882.00
1052.04	884.00
1052.28	914.00
1052.52	866.00
1052.76	856.00
1053.00	872.00
1053.24	890.00
1053.48	860.00
1053.72	878.00
1053.96	890.00
1054.20	898.00
1054.44	872.00
1054.68	890.00
1054.92	891.00
1055.16	860.00
1055.40	854.00
1055.64	882.00
1055.88	900.00
1056.12	916.00
1056.36	842.00
1056.60	850.00
1056.84	915.00
1057.08	895.00
1057.32	880.00
1057.56	872.00
1057.80	873.00
1058.04	912.00
1058.28	868.00
1058.52	866.00
1058.76	910.00
1059.00	922.00
1059.24	833.00
1059.48	842.00
1059.72	908.00
1059.96	869.00
1060.20	884.00
1060.44	902.00
1060.68	906.00
1060.92	884.00
1061.16	837.00
1061.40	867.00
1061.64	876.00
1061.88	879.00
1062.11	867.00
1062.35	865.00
1062.59	886.00
1062.83	910.00
1063.07	860.00
1063.31	850.00
1063.55	877.00
1063.79	911.00
1064.03	861.00
1064.27	871.00
1064.51	898.00
1064.75	905.00
1064.99	882.00
1065.23	867.00
1065.47	869.00
1065.71	906.00
1065.95	862.00
1066.19	868.00
1066.43	896.00
1066.67	890.00
1066.91	870.00
1067.15	869.00
1067.38	876.00
1067.62	885.00
1067.86	849.00
1068.10	872.00
1068.34	915.00
1068.58	922.00
1068.82	867.00
1069.06	823.00
1069.30	880.00
1069.54	909.00
1069.78	910.00
1070.02	887.00
1070.26	925.00
1070.50	931.00
1070.74	868.00
1070.98	905.00
1071.21	914.00
1071.45	892.00
1071.69	850.00
1071.93	866.00
1072.17	883.00
1072.41	880.00
1072.65	876.00
1072.89	886.00
1073.13	888.00
1073.37	877.00
1073.61	876.00
1073.85	890.00
1074.09	873.00
1074.32	874.00
1074.56	861.00
1074.80	945.00
1075.04	1158.00
1075.28	1000.00
1075.52	884.00
1075.76	885.00
1076.00	901.00
1076.24	893.00
1076.48	900.00
1076.72	897.00
1076.96	906.00
1077.19	884.00
1077.43	856.00
1077.67	885.00
1077.91	887.00
1078.15	865.00
1078.39	878.00
1078.63	860.00
1078.87	885.00
1079.11	910.00
1079.35	872.00
1079.58	864.00
1079.82	884.00
1080.06	877.00
1080.30	859.00
1080.54	894.00
1080.78	926.00
1081.02	900.00
1081.26	868.00
1081.50	883.00
1081.74	895.00
1081.97	905.00
1082.21	863.00
1082.45	889.00
1082.69	896.00
1082.93	882.00
1083.17	871.00
1083.41	883.00
1083.65	926.00
1083.88	906.00
1084.12	874.00
1084.36	879.00
1084.60	894.00
1084.84	899.00
1085.08	847.00
1085.32	857.00
1085.56	897.00
1085.80	889.00
1086.03	864.00
1086.27	869.00
1086.51	880.00
1086.75	901.00
1086.99	866.00
1087.23	840.00
1087.47	891.00
1087.70	882.00
1087.94	866.00
1088.18	912.00
1088.42	942.00
1088.66	897.00
1088.90	849.00
1089.14	863.00
1089.38	873.00
1089.61	899.00
1089.85	876.00
1090.09	845.00
1090.33	909.00
1090.57	923.00
1090.81	848.00
1091.05	885.00
1091.28	913.00
1091.52	897.00
1091.76	855.00
1092.00	864.00
1092.24	883.00
1092.48	913.00
1092.71	877.00
1092.95	900.00
1093.19	911.00
1093.43	902.00
1093.67	845.00
1093.91	878.00
1094.15	885.00
1094.38	904.00
1094.62	869.00
1094.86	844.00
1095.10	865.00
1095.34	884.00
1095.58	846.00
1095.81	871.00
1096.05	909.00
1096.29	902.00
1096.53	853.00
1096.77	894.00
1097.01	890.00
1097.24	908.00
1097.48	858.00
1097.72	883.00
1097.96	889.00
1098.20	895.00
1098.44	844.00
1098.67	857.00
1098.91	906.00
1099.15	898.00
1099.39	852.00
1099.63	868.00
1099.86	878.00
1100.10	871.00
1100.34	863.00
1100.58	873.00
1100.82	894.00
1101.06	886.00
1101.29	856.00
1101.53	879.00
1101.77	884.00
1102.01	871.00
1102.25	861.00
1102.48	872.00
1102.72	901.00
1102.96	886.00
1103.20	853.00
1103.44	869.00
1103.67	890.00
1103.91	904.00
1104.15	853.00
1104.39	865.00
1104.63	890.00
1104.86	864.00
1105.10	847.00
1105.34	876.00
1105.58	865.00
1105.82	879.00
1106.05	865.00
1106.29	893.00
1106.53	894.00
1106.77	911.00
1107.01	852.00
1107.24	880.00
1107.48	935.00
1107.72	910.00
1107.96	836.00
1108.20	867.00
1108.43	883.00
1108.67	877.00
1108.91	857.00
1109.15	866.00
1109.39	877.00
1109.62	880.00
1109.86	849.00
1110.10	868.00
1110.34	939.00
1110.57	951.00
1110.81	876.00
1111.05	886.00
1111.29	916.00
1111.53	917.00
1111.76	853.00
1112.00	896.00
1112.24	922.00
1112.48	899.00
1112.71	852.00
1112.95	868.00
1113.19	911.00
1113.43	882.00
1113.66	841.00
1113.90	886.00
1114.14	893.00
1114.38	905.00
1114.62	854.00
1114.85	899.00
1115.09	906.00
1115.33	940.00
1115.57	884.00
1115.80	865.00
1116.04	878.00
1116.28	891.00
1116.52	869.00
1116.75	871.00
1116.99	922.00
1117.23	919.00
1117.47	897.00
1117.70	907.00
1117.94	951.00
1118.18	873.00
1118.42	864.00
1118.65	896.00
1118.89	904.00
1119.13	889.00
1119.37	857.00
1119.60	880.00
1119.84	903.00
>>>>>End Processed Spectral Data<<<<<
