SpectraSuite Data File
++++++++++++++++++++++++++++++++++++
Date: Fri Dec 06 15:56:51 CET 2024
User: student
Dark Spectrum Present: No
Reference Spectrum Present: No
Number of Sampled Component Spectra: 1
Spectrometers: HR4C155
Integration Time (usec): 100000 (HR4C155)
Spectra Averaged: 1 (HR4C155)
Boxcar Smoothing: 0 (HR4C155)
Correct for Electrical Dark: No (HR4C155)
Strobe/Lamp Enabled: No (HR4C155)
Correct for Detector Non-linearity: No (HR4C155)
Correct for Stray Light: No (HR4C155)
Number of Pixels in Processed Spectrum: 3648
>>>>>Begin Processed Spectral Data<<<<<
195.39	745.00
195.66	745.00
195.93	745.00
196.20	681.00
196.46	716.00
196.73	858.00
197.00	843.00
197.27	838.00
197.54	873.00
197.81	867.00
198.08	852.00
198.35	890.00
198.61	897.00
198.88	867.00
199.15	853.00
199.42	876.00
199.69	903.00
199.96	880.00
200.23	901.00
200.49	890.00
200.76	900.00
201.03	896.00
201.30	861.00
201.57	931.00
201.84	935.00
202.11	892.00
202.38	913.00
202.64	929.00
202.91	938.00
203.18	866.00
203.45	932.00
203.72	1021.00
203.99	926.00
204.25	923.00
204.52	906.00
204.79	921.00
205.06	934.00
205.33	890.00
205.60	905.00
205.87	957.00
206.13	941.00
206.40	926.00
206.67	907.00
206.94	933.00
207.21	933.00
207.48	897.00
207.75	882.00
208.01	933.00
208.28	943.00
208.55	898.00
208.82	917.00
209.09	899.00
209.36	944.00
209.62	911.00
209.89	945.00
210.16	951.00
210.43	940.00
210.70	899.00
210.97	914.00
211.23	933.00
211.50	950.00
211.77	908.00
212.04	903.00
212.31	909.00
212.58	966.00
212.84	918.00
213.11	900.00
213.38	897.00
213.65	928.00
213.92	889.00
214.18	905.00
214.45	948.00
214.72	943.00
214.99	881.00
215.26	929.00
215.53	907.00
215.79	961.00
216.06	956.00
216.33	943.00
216.60	908.00
216.87	932.00
217.13	875.00
217.40	901.00
217.67	944.00
217.94	979.00
218.21	911.00
218.48	948.00
218.74	987.00
219.01	959.00
219.28	891.00
219.55	891.00
219.82	913.00
220.08	952.00
220.35	906.00
220.62	903.00
220.89	954.00
221.16	982.00
221.42	926.00
221.69	934.00
221.96	937.00
222.23	971.00
222.50	936.00
222.76	936.00
223.03	929.00
223.30	932.00
223.57	892.00
223.84	870.00
224.10	894.00
224.37	935.00
224.64	887.00
224.91	907.00
225.18	942.00
225.44	946.00
225.71	916.00
225.98	926.00
226.25	953.00
226.51	958.00
226.78	894.00
227.05	902.00
227.32	924.00
227.59	925.00
227.85	914.00
228.12	915.00
228.39	942.00
228.66	972.00
228.92	951.00
229.19	937.00
229.46	948.00
229.73	924.00
230.00	898.00
230.26	909.00
230.53	939.00
230.80	939.00
231.07	864.00
231.33	876.00
231.60	929.00
231.87	939.00
232.14	897.00
232.41	939.00
232.67	940.00
232.94	940.00
233.21	924.00
233.48	935.00
233.74	941.00
234.01	916.00
234.28	889.00
234.55	903.00
234.81	908.00
235.08	949.00
235.35	901.00
235.62	901.00
235.88	923.00
236.15	938.00
236.42	909.00
236.69	915.00
236.95	949.00
237.22	924.00
237.49	909.00
237.76	902.00
238.02	941.00
238.29	949.00
238.56	903.00
238.83	914.00
239.09	907.00
239.36	941.00
239.63	892.00
239.90	912.00
240.16	957.00
240.43	987.00
240.70	918.00
240.97	914.00
241.23	909.00
241.50	925.00
241.77	914.00
242.04	914.00
242.30	912.00
242.57	924.00
242.84	907.00
243.11	897.00
243.37	885.00
243.64	958.00
243.91	905.00
244.18	897.00
244.44	892.00
244.71	909.00
244.98	900.00
245.24	908.00
245.51	929.00
245.78	949.00
246.05	894.00
246.31	894.00
246.58	956.00
246.85	929.00
247.12	902.00
247.38	951.00
247.65	931.00
247.92	940.00
248.18	904.00
248.45	911.00
248.72	939.00
248.99	936.00
249.25	879.00
249.52	894.00
249.79	931.00
250.05	948.00
250.32	913.00
250.59	908.00
250.86	915.00
251.12	916.00
251.39	897.00
251.66	923.00
251.92	957.00
252.19	958.00
252.46	892.00
252.73	931.00
252.99	940.00
253.26	967.00
253.53	898.00
253.79	916.00
254.06	913.00
254.33	902.00
254.60	888.00
254.86	898.00
255.13	939.00
255.40	961.00
255.66	901.00
255.93	931.00
256.20	938.00
256.46	953.00
256.73	915.00
257.00	922.00
257.26	935.00
257.53	940.00
257.80	936.00
258.07	936.00
258.33	970.00
258.60	958.00
258.87	897.00
259.13	920.00
259.40	918.00
259.67	951.00
259.93	924.00
260.20	945.00
260.47	942.00
260.73	933.00
261.00	905.00
261.27	924.00
261.53	934.00
261.80	940.00
262.07	884.00
262.34	918.00
262.60	889.00
262.87	914.00
263.14	871.00
263.40	909.00
263.67	882.00
263.94	899.00
264.20	908.00
264.47	888.00
264.74	894.00
265.00	900.00
265.27	878.00
265.54	896.00
265.80	932.00
266.07	947.00
266.34	896.00
266.60	905.00
266.87	936.00
267.14	943.00
267.40	883.00
267.67	881.00
267.94	933.00
268.20	920.00
268.47	886.00
268.74	878.00
269.00	915.00
269.27	905.00
269.54	868.00
269.80	885.00
270.07	942.00
270.33	923.00
270.60	900.00
270.87	900.00
271.13	902.00
271.40	918.00
271.67	845.00
271.93	858.00
272.20	927.00
272.47	903.00
272.73	850.00
273.00	888.00
273.27	910.00
273.53	947.00
273.80	889.00
274.07	887.00
274.33	926.00
274.60	940.00
274.86	905.00
275.13	908.00
275.40	898.00
275.66	935.00
275.93	888.00
276.20	897.00
276.46	926.00
276.73	898.00
277.00	888.00
277.26	924.00
277.53	941.00
277.79	923.00
278.06	905.00
278.33	935.00
278.59	927.00
278.86	902.00
279.13	900.00
279.39	914.00
279.66	957.00
279.93	943.00
280.19	888.00
280.46	912.00
280.72	920.00
280.99	925.00
281.26	890.00
281.52	886.00
281.79	914.00
282.05	922.00
282.32	914.00
282.59	914.00
282.85	946.00
283.12	942.00
283.39	905.00
283.65	912.00
283.92	917.00
284.18	934.00
284.45	893.00
284.72	916.00
284.98	913.00
285.25	908.00
285.51	930.00
285.78	918.00
286.05	908.00
286.31	909.00
286.58	869.00
286.84	894.00
287.11	903.00
287.38	919.00
287.64	925.00
287.91	908.00
288.17	929.00
288.44	911.00
288.71	855.00
288.97	894.00
289.24	920.00
289.50	894.00
289.77	909.00
290.04	888.00
290.30	894.00
290.57	940.00
290.83	882.00
291.10	902.00
291.37	926.00
291.63	916.00
291.90	920.00
292.16	920.00
292.43	925.00
292.70	915.00
292.96	848.00
293.23	873.00
293.49	907.00
293.76	943.00
294.02	905.00
294.29	907.00
294.56	930.00
294.82	937.00
295.09	889.00
295.35	889.00
295.62	943.00
295.89	952.00
296.15	889.00
296.42	891.00
296.68	896.00
296.95	902.00
297.21	912.00
297.48	913.00
297.75	930.00
298.01	954.00
298.28	904.00
298.54	902.00
298.81	912.00
299.07	924.00
299.34	868.00
299.61	900.00
299.87	942.00
300.14	926.00
300.40	920.00
300.67	904.00
300.93	935.00
301.20	956.00
301.46	885.00
301.73	883.00
302.00	906.00
302.26	922.00
302.53	912.00
302.79	897.00
303.06	921.00
303.32	957.00
303.59	881.00
303.85	872.00
304.12	893.00
304.39	914.00
304.65	902.00
304.92	918.00
305.18	925.00
305.45	932.00
305.71	890.00
305.98	905.00
306.24	897.00
306.51	909.00
306.77	897.00
307.04	902.00
307.31	940.00
307.57	932.00
307.84	868.00
308.10	887.00
308.37	884.00
308.63	905.00
308.90	885.00
309.16	911.00
309.43	935.00
309.69	899.00
309.96	893.00
310.22	892.00
310.49	902.00
310.76	927.00
311.02	870.00
311.29	898.00
311.55	919.00
311.82	903.00
312.08	900.00
312.35	923.00
312.61	935.00
312.88	932.00
313.14	884.00
313.41	886.00
313.67	893.00
313.94	930.00
314.20	902.00
314.47	912.00
314.73	914.00
315.00	916.00
315.26	872.00
315.53	923.00
315.79	932.00
316.06	939.00
316.32	903.00
316.59	925.00
316.85	925.00
317.12	929.00
317.39	871.00
317.65	884.00
317.92	893.00
318.18	933.00
318.45	907.00
318.71	941.00
318.98	923.00
319.24	925.00
319.51	898.00
319.77	893.00
320.04	909.00
320.30	912.00
320.57	892.00
320.83	883.00
321.10	886.00
321.36	915.00
321.63	881.00
321.89	875.00
322.16	931.00
322.42	920.00
322.69	875.00
322.95	880.00
323.22	918.00
323.48	941.00
323.75	892.00
324.01	889.00
324.28	901.00
324.54	907.00
324.80	891.00
325.07	919.00
325.33	922.00
325.60	902.00
325.86	868.00
326.13	894.00
326.39	919.00
326.66	900.00
326.92	842.00
327.19	887.00
327.45	963.00
327.72	950.00
327.98	874.00
328.25	878.00
328.51	915.00
328.78	921.00
329.04	880.00
329.31	905.00
329.57	917.00
329.84	905.00
330.10	883.00
330.37	903.00
330.63	943.00
330.89	953.00
331.16	890.00
331.42	893.00
331.69	933.00
331.95	915.00
332.22	890.00
332.48	932.00
332.75	934.00
333.01	910.00
333.28	909.00
333.54	904.00
333.81	926.00
334.07	933.00
334.34	908.00
334.60	924.00
334.86	959.00
335.13	958.00
335.39	908.00
335.66	907.00
335.92	936.00
336.19	942.00
336.45	852.00
336.72	886.00
336.98	891.00
337.24	910.00
337.51	882.00
337.77	900.00
338.04	922.00
338.30	919.00
338.57	891.00
338.83	914.00
339.10	927.00
339.36	921.00
339.63	884.00
339.89	876.00
340.15	906.00
340.42	939.00
340.68	921.00
340.95	914.00
341.21	915.00
341.48	919.00
341.74	855.00
342.00	855.00
342.27	904.00
342.53	922.00
342.80	887.00
343.06	899.00
343.33	920.00
343.59	936.00
343.85	895.00
344.12	906.00
344.38	972.00
344.65	948.00
344.91	895.00
345.18	890.00
345.44	906.00
345.70	909.00
345.97	860.00
346.23	889.00
346.50	932.00
346.76	914.00
347.03	925.00
347.29	908.00
347.55	910.00
347.82	905.00
348.08	866.00
348.35	883.00
348.61	955.00
348.87	936.00
349.14	853.00
349.40	873.00
349.67	922.00
349.93	919.00
350.20	892.00
350.46	901.00
350.72	923.00
350.99	893.00
351.25	875.00
351.52	893.00
351.78	901.00
352.04	923.00
352.31	899.00
352.57	897.00
352.84	900.00
353.10	915.00
353.36	899.00
353.63	885.00
353.89	904.00
354.16	920.00
354.42	910.00
354.68	926.00
354.95	955.00
355.21	937.00
355.48	892.00
355.74	925.00
356.00	956.00
356.27	961.00
356.53	877.00
356.80	895.00
357.06	939.00
357.32	938.00
357.59	915.00
357.85	912.00
358.11	945.00
358.38	921.00
358.64	885.00
358.91	887.00
359.17	911.00
359.43	945.00
359.70	911.00
359.96	891.00
360.22	934.00
360.49	921.00
360.75	909.00
361.02	887.00
361.28	886.00
361.54	898.00
361.81	869.00
362.07	884.00
362.33	876.00
362.60	898.00
362.86	901.00
363.13	906.00
363.39	924.00
363.65	939.00
363.92	845.00
364.18	857.00
364.44	915.00
364.71	929.00
364.97	887.00
365.24	887.00
365.50	940.00
365.76	945.00
366.03	889.00
366.29	910.00
366.55	928.00
366.82	901.00
367.08	861.00
367.34	884.00
367.61	916.00
367.87	933.00
368.13	910.00
368.40	897.00
368.66	956.00
368.93	937.00
369.19	864.00
369.45	871.00
369.72	910.00
369.98	911.00
370.24	863.00
370.51	872.00
370.77	919.00
371.03	916.00
371.30	892.00
371.56	917.00
371.82	935.00
372.09	929.00
372.35	917.00
372.61	904.00
372.88	912.00
373.14	931.00
373.40	898.00
373.67	879.00
373.93	904.00
374.19	933.00
374.46	881.00
374.72	886.00
374.98	914.00
375.25	934.00
375.51	912.00
375.77	935.00
376.04	929.00
376.30	910.00
376.56	862.00
376.83	893.00
377.09	920.00
377.35	918.00
377.62	908.00
377.88	900.00
378.14	902.00
378.41	926.00
378.67	904.00
378.93	901.00
379.20	944.00
379.46	908.00
379.72	882.00
379.99	884.00
380.25	885.00
380.51	869.00
380.77	867.00
381.04	889.00
381.30	926.00
381.56	947.00
381.83	922.00
382.09	899.00
382.35	908.00
382.62	931.00
382.88	909.00
383.14	905.00
383.41	899.00
383.67	899.00
383.93	915.00
384.20	897.00
384.46	916.00
384.72	940.00
384.98	874.00
385.25	900.00
385.51	930.00
385.77	912.00
386.04	872.00
386.30	850.00
386.56	918.00
386.82	990.00
387.09	906.00
387.35	926.00
387.61	977.00
387.88	942.00
388.14	917.00
388.40	915.00
388.67	907.00
388.93	912.00
389.19	889.00
389.45	893.00
389.72	904.00
389.98	924.00
390.24	886.00
390.51	884.00
390.77	915.00
391.03	930.00
391.29	883.00
391.56	896.00
391.82	921.00
392.08	953.00
392.35	893.00
392.61	905.00
392.87	929.00
393.13	938.00
393.40	865.00
393.66	877.00
393.92	920.00
394.18	921.00
394.45	867.00
394.71	891.00
394.97	908.00
395.24	884.00
395.50	881.00
395.76	905.00
396.02	937.00
396.29	930.00
396.55	890.00
396.81	871.00
397.07	907.00
397.34	888.00
397.60	855.00
397.86	863.00
398.12	906.00
398.39	934.00
398.65	895.00
398.91	900.00
399.17	905.00
399.44	871.00
399.70	849.00
399.96	889.00
400.22	892.00
400.49	932.00
400.75	907.00
401.01	876.00
401.27	891.00
401.54	936.00
401.80	886.00
402.06	878.00
402.32	925.00
402.59	921.00
402.85	885.00
403.11	902.00
403.37	894.00
403.64	949.00
403.90	898.00
404.16	887.00
404.42	905.00
404.69	900.00
404.95	864.00
405.21	864.00
405.47	901.00
405.74	925.00
406.00	884.00
406.26	887.00
406.52	895.00
406.79	933.00
407.05	889.00
407.31	899.00
407.57	907.00
407.83	924.00
408.10	844.00
408.36	876.00
408.62	898.00
408.88	900.00
409.15	874.00
409.41	841.00
409.67	866.00
409.93	917.00
410.20	906.00
410.46	878.00
410.72	886.00
410.98	901.00
411.24	886.00
411.51	883.00
411.77	891.00
412.03	921.00
412.29	915.00
412.55	918.00
412.82	892.00
413.08	930.00
413.34	901.00
413.60	905.00
413.87	909.00
414.13	924.00
414.39	875.00
414.65	892.00
414.91	909.00
415.18	889.00
415.44	874.00
415.70	889.00
415.96	909.00
416.22	914.00
416.49	884.00
416.75	884.00
417.01	913.00
417.27	901.00
417.53	894.00
417.80	915.00
418.06	923.00
418.32	923.00
418.58	873.00
418.84	879.00
419.11	911.00
419.37	912.00
419.63	884.00
419.89	889.00
420.15	906.00
420.42	888.00
420.68	862.00
420.94	876.00
421.20	900.00
421.46	908.00
421.72	912.00
421.99	901.00
422.25	907.00
422.51	916.00
422.77	887.00
423.03	907.00
423.30	901.00
423.56	930.00
423.82	926.00
424.08	908.00
424.34	925.00
424.60	919.00
424.87	867.00
425.13	876.00
425.39	892.00
425.65	903.00
425.91	876.00
426.18	893.00
426.44	901.00
426.70	891.00
426.96	849.00
427.22	838.00
427.48	878.00
427.75	891.00
428.01	861.00
428.27	898.00
428.53	936.00
428.79	896.00
429.05	885.00
429.32	894.00
429.58	946.00
429.84	891.00
430.10	906.00
430.36	903.00
430.62	942.00
430.88	920.00
431.15	912.00
431.41	900.00
431.67	899.00
431.93	890.00
432.19	852.00
432.45	894.00
432.72	904.00
432.98	902.00
433.24	930.00
433.50	999.00
433.76	905.00
434.02	878.00
434.28	867.00
434.55	890.00
434.81	917.00
435.07	920.00
435.33	862.00
435.59	872.00
435.85	885.00
436.11	919.00
436.38	876.00
436.64	863.00
436.90	904.00
437.16	909.00
437.42	891.00
437.68	888.00
437.94	908.00
438.21	923.00
438.47	913.00
438.73	908.00
438.99	913.00
439.25	912.00
439.51	878.00
439.77	892.00
440.03	895.00
440.30	920.00
440.56	892.00
440.82	924.00
441.08	940.00
441.34	908.00
441.60	869.00
441.86	884.00
442.12	923.00
442.39	910.00
442.65	870.00
442.91	872.00
443.17	898.00
443.43	910.00
443.69	892.00
443.95	874.00
444.21	890.00
444.47	922.00
444.74	857.00
445.00	885.00
445.26	889.00
445.52	897.00
445.78	867.00
446.04	867.00
446.30	921.00
446.56	924.00
446.82	858.00
447.09	883.00
447.35	909.00
447.61	905.00
447.87	872.00
448.13	887.00
448.39	946.00
448.65	923.00
448.91	862.00
449.17	881.00
449.43	895.00
449.70	894.00
449.96	865.00
450.22	881.00
450.48	912.00
450.74	940.00
451.00	883.00
451.26	886.00
451.52	913.00
451.78	892.00
452.04	875.00
452.31	908.00
452.57	919.00
452.83	894.00
453.09	883.00
453.35	895.00
453.61	920.00
453.87	915.00
454.13	911.00
454.39	915.00
454.65	968.00
454.91	949.00
455.17	886.00
455.44	900.00
455.70	926.00
455.96	920.00
456.22	878.00
456.48	875.00
456.74	882.00
457.00	864.00
457.26	816.00
457.52	872.00
457.78	888.00
458.04	892.00
458.30	858.00
458.56	873.00
458.82	878.00
459.09	861.00
459.35	839.00
459.61	867.00
459.87	912.00
460.13	927.00
460.39	892.00
460.65	873.00
460.91	915.00
461.17	886.00
461.43	851.00
461.69	864.00
461.95	894.00
462.21	896.00
462.47	893.00
462.73	931.00
462.99	927.00
463.26	896.00
463.52	846.00
463.78	851.00
464.04	874.00
464.30	888.00
464.56	870.00
464.82	905.00
465.08	954.00
465.34	938.00
465.60	907.00
465.86	896.00
466.12	916.00
466.38	885.00
466.64	889.00
466.90	895.00
467.16	906.00
467.42	918.00
467.68	866.00
467.94	886.00
468.20	942.00
468.46	915.00
468.72	894.00
468.98	887.00
469.25	899.00
469.51	884.00
469.77	899.00
470.03	898.00
470.29	904.00
470.55	917.00
470.81	887.00
471.07	895.00
471.33	935.00
471.59	932.00
471.85	886.00
472.11	904.00
472.37	912.00
472.63	901.00
472.89	906.00
473.15	884.00
473.41	896.00
473.67	882.00
473.93	839.00
474.19	854.00
474.45	877.00
474.71	893.00
474.97	870.00
475.23	881.00
475.49	899.00
475.75	887.00
476.01	884.00
476.27	901.00
476.53	925.00
476.79	920.00
477.05	894.00
477.31	891.00
477.57	922.00
477.83	918.00
478.09	862.00
478.35	894.00
478.61	923.00
478.87	907.00
479.13	881.00
479.39	919.00
479.65	929.00
479.91	918.00
480.17	899.00
480.43	908.00
480.69	879.00
480.95	908.00
481.21	869.00
481.47	873.00
481.73	902.00
481.99	888.00
482.25	871.00
482.51	865.00
482.77	919.00
483.03	914.00
483.29	899.00
483.55	890.00
483.81	919.00
484.07	906.00
484.33	869.00
484.59	869.00
484.85	918.00
485.11	915.00
485.37	873.00
485.63	874.00
485.89	873.00
486.15	881.00
486.41	871.00
486.67	898.00
486.93	909.00
487.19	897.00
487.45	884.00
487.71	871.00
487.97	912.00
488.23	934.00
488.49	874.00
488.75	876.00
489.01	907.00
489.27	932.00
489.53	879.00
489.79	873.00
490.05	901.00
490.31	927.00
490.57	920.00
490.83	946.00
491.08	912.00
491.34	870.00
491.60	851.00
491.86	895.00
492.12	948.00
492.38	951.00
492.64	869.00
492.90	859.00
493.16	910.00
493.42	885.00
493.68	865.00
493.94	912.00
494.20	890.00
494.46	905.00
494.72	879.00
494.98	879.00
495.24	879.00
495.50	914.00
495.76	902.00
496.02	904.00
496.28	918.00
496.54	914.00
496.80	875.00
497.05	850.00
497.31	906.00
497.57	908.00
497.83	873.00
498.09	883.00
498.35	921.00
498.61	908.00
498.87	897.00
499.13	902.00
499.39	914.00
499.65	905.00
499.91	906.00
500.17	870.00
500.43	949.00
500.69	985.00
500.95	900.00
501.20	911.00
501.46	927.00
501.72	913.00
501.98	900.00
502.24	915.00
502.50	923.00
502.76	900.00
503.02	883.00
503.28	884.00
503.54	940.00
503.80	944.00
504.06	904.00
504.32	914.00
504.58	905.00
504.83	886.00
505.09	853.00
505.35	888.00
505.61	877.00
505.87	898.00
506.13	896.00
506.39	891.00
506.65	930.00
506.91	949.00
507.17	897.00
507.43	891.00
507.68	919.00
507.94	934.00
508.20	874.00
508.46	859.00
508.72	922.00
508.98	923.00
509.24	858.00
509.50	905.00
509.76	886.00
510.02	902.00
510.28	861.00
510.53	883.00
510.79	929.00
511.05	902.00
511.31	870.00
511.57	884.00
511.83	915.00
512.09	907.00
512.35	862.00
512.61	883.00
512.87	911.00
513.12	922.00
513.38	864.00
513.64	899.00
513.90	922.00
514.16	926.00
514.42	880.00
514.68	897.00
514.94	928.00
515.20	925.00
515.45	869.00
515.71	867.00
515.97	895.00
516.23	898.00
516.49	859.00
516.75	872.00
517.01	894.00
517.27	896.00
517.53	861.00
517.78	888.00
518.04	891.00
518.30	881.00
518.56	863.00
518.82	921.00
519.08	939.00
519.34	882.00
519.60	868.00
519.85	890.00
520.11	897.00
520.37	901.00
520.63	886.00
520.89	891.00
521.15	900.00
521.41	907.00
521.66	890.00
521.92	890.00
522.18	926.00
522.44	927.00
522.70	868.00
522.96	863.00
523.22	913.00
523.48	906.00
523.73	875.00
523.99	872.00
524.25	941.00
524.51	935.00
524.77	869.00
525.03	858.00
525.29	890.00
525.54	913.00
525.80	876.00
526.06	889.00
526.32	893.00
526.58	898.00
526.84	860.00
527.09	868.00
527.35	884.00
527.61	895.00
527.87	861.00
528.13	885.00
528.39	877.00
528.65	879.00
528.90	866.00
529.16	873.00
529.42	873.00
529.68	892.00
529.94	879.00
530.20	882.00
530.45	888.00
530.71	899.00
530.97	857.00
531.23	865.00
531.49	900.00
531.75	896.00
532.00	886.00
532.26	876.00
532.52	907.00
532.78	883.00
533.04	857.00
533.30	869.00
533.55	882.00
533.81	895.00
534.07	849.00
534.33	869.00
534.59	927.00
534.85	904.00
535.10	855.00
535.36	854.00
535.62	894.00
535.88	879.00
536.14	849.00
536.39	866.00
536.65	921.00
536.91	931.00
537.17	874.00
537.43	886.00
537.69	940.00
537.94	924.00
538.20	867.00
538.46	880.00
538.72	902.00
538.98	905.00
539.23	867.00
539.49	860.00
539.75	922.00
540.01	909.00
540.27	865.00
540.52	919.00
540.78	913.00
541.04	918.00
541.30	862.00
541.56	848.00
541.81	921.00
542.07	962.00
542.33	885.00
542.59	876.00
542.85	882.00
543.10	898.00
543.36	874.00
543.62	914.00
543.88	909.00
544.14	896.00
544.39	882.00
544.65	882.00
544.91	912.00
545.17	890.00
545.43	873.00
545.68	879.00
545.94	889.00
546.20	910.00
546.46	878.00
546.71	872.00
546.97	886.00
547.23	904.00
547.49	864.00
547.75	858.00
548.00	913.00
548.26	930.00
548.52	882.00
548.78	881.00
549.03	897.00
549.29	901.00
549.55	859.00
549.81	893.00
550.07	914.00
550.32	906.00
550.58	883.00
550.84	891.00
551.10	909.00
551.35	909.00
551.61	882.00
551.87	906.00
552.13	907.00
552.39	882.00
552.64	840.00
552.90	885.00
553.16	916.00
553.42	909.00
553.67	864.00
553.93	876.00
554.19	918.00
554.45	934.00
554.70	881.00
554.96	869.00
555.22	910.00
555.48	920.00
555.73	875.00
555.99	884.00
556.25	903.00
556.51	896.00
556.76	876.00
557.02	897.00
557.28	908.00
557.54	903.00
557.79	888.00
558.05	916.00
558.31	889.00
558.57	919.00
558.82	873.00
559.08	861.00
559.34	858.00
559.60	910.00
559.85	883.00
560.11	893.00
560.37	903.00
560.63	887.00
560.88	879.00
561.14	873.00
561.40	912.00
561.66	875.00
561.91	877.00
562.17	888.00
562.43	911.00
562.68	918.00
562.94	887.00
563.20	908.00
563.46	915.00
563.71	930.00
563.97	870.00
564.23	903.00
564.49	921.00
564.74	891.00
565.00	876.00
565.26	877.00
565.51	894.00
565.77	886.00
566.03	857.00
566.29	883.00
566.54	864.00
566.80	886.00
567.06	881.00
567.31	901.00
567.57	916.00
567.83	889.00
568.09	899.00
568.34	892.00
568.60	877.00
568.86	921.00
569.11	897.00
569.37	869.00
569.63	922.00
569.89	915.00
570.14	858.00
570.40	874.00
570.66	888.00
570.91	881.00
571.17	861.00
571.43	901.00
571.69	918.00
571.94	930.00
572.20	858.00
572.46	871.00
572.71	912.00
572.97	892.00
573.23	870.00
573.48	873.00
573.74	890.00
574.00	915.00
574.26	860.00
574.51	867.00
574.77	901.00
575.03	897.00
575.28	883.00
575.54	860.00
575.80	893.00
576.05	907.00
576.31	876.00
576.57	874.00
576.82	896.00
577.08	892.00
577.34	866.00
577.59	876.00
577.85	921.00
578.11	890.00
578.37	859.00
578.62	860.00
578.88	910.00
579.14	921.00
579.39	876.00
579.65	883.00
579.91	887.00
580.16	893.00
580.42	874.00
580.68	883.00
580.93	906.00
581.19	890.00
581.45	859.00
581.70	884.00
581.96	891.00
582.22	911.00
582.47	909.00
582.73	907.00
582.99	929.00
583.24	914.00
583.50	862.00
583.76	868.00
584.01	898.00
584.27	919.00
584.53	894.00
584.78	897.00
585.04	883.00
585.30	903.00
585.55	890.00
585.81	870.00
586.07	945.00
586.32	920.00
586.58	876.00
586.83	882.00
587.09	916.00
587.35	913.00
587.60	873.00
587.86	878.00
588.12	890.00
588.37	918.00
588.63	889.00
588.89	907.00
589.14	924.00
589.40	918.00
589.66	855.00
589.91	891.00
590.17	905.00
590.43	865.00
590.68	838.00
590.94	871.00
591.19	924.00
591.45	915.00
591.71	871.00
591.96	884.00
592.22	915.00
592.48	912.00
592.73	858.00
592.99	875.00
593.25	915.00
593.50	914.00
593.76	864.00
594.01	890.00
594.27	919.00
594.53	907.00
594.78	882.00
595.04	915.00
595.30	913.00
595.55	914.00
595.81	845.00
596.06	895.00
596.32	942.00
596.58	927.00
596.83	891.00
597.09	920.00
597.35	916.00
597.60	889.00
597.86	869.00
598.11	888.00
598.37	938.00
598.63	922.00
598.88	871.00
599.14	873.00
599.39	922.00
599.65	907.00
599.91	841.00
600.16	865.00
600.42	914.00
600.67	931.00
600.93	881.00
601.19	890.00
601.44	941.00
601.70	922.00
601.95	881.00
602.21	914.00
602.47	910.00
602.72	912.00
602.98	875.00
603.23	897.00
603.49	936.00
603.75	927.00
604.00	873.00
604.26	877.00
604.51	876.00
604.77	929.00
605.03	870.00
605.28	890.00
605.54	964.00
605.79	964.00
606.05	863.00
606.31	879.00
606.56	907.00
606.82	931.00
607.07	903.00
607.33	916.00
607.59	946.00
607.84	913.00
608.10	861.00
608.35	904.00
608.61	944.00
608.86	933.00
609.12	910.00
609.38	945.00
609.63	965.00
609.89	932.00
610.14	886.00
610.40	911.00
610.65	939.00
610.91	928.00
611.17	906.00
611.42	919.00
611.68	961.00
611.93	981.00
612.19	943.00
612.44	930.00
612.70	940.00
612.96	920.00
613.21	888.00
613.47	901.00
613.72	932.00
613.98	962.00
614.23	933.00
614.49	961.00
614.75	987.00
615.00	973.00
615.26	930.00
615.51	936.00
615.77	985.00
616.02	1005.00
616.28	970.00
616.53	964.00
616.79	967.00
617.05	972.00
617.30	942.00
617.56	953.00
617.81	987.00
618.07	990.00
618.32	976.00
618.58	1022.00
618.83	1047.00
619.09	1032.00
619.34	975.00
619.60	989.00
619.86	1046.00
620.11	1080.00
620.37	1044.00
620.62	1059.00
620.88	1052.00
621.13	1059.00
621.39	1004.00
621.64	1052.00
621.90	1095.00
622.15	1077.00
622.41	1071.00
622.66	1082.00
622.92	1109.00
623.18	1082.00
623.43	1049.00
623.69	1093.00
623.94	1123.00
624.20	1115.00
624.45	1101.00
624.71	1142.00
624.96	1134.00
625.22	1195.00
625.47	1159.00
625.73	1152.00
625.98	1164.00
626.24	1159.00
626.49	1127.00
626.75	1217.00
627.00	1302.00
627.26	1351.00
627.51	1317.00
627.77	1292.00
628.02	1298.00
628.28	1295.00
628.53	1306.00
628.79	1318.00
629.05	1293.00
629.30	1276.00
629.56	1273.00
629.81	1363.00
630.07	1425.00
630.32	1399.00
630.58	1362.00
630.83	1367.00
631.09	1425.00
631.34	1501.00
631.60	1539.00
631.85	1580.00
632.11	1600.00
632.36	1568.00
632.62	1495.00
632.87	1524.00
633.13	1574.00
633.38	1555.00
633.64	1522.00
633.89	1587.00
634.15	1639.00
634.40	1676.00
634.66	1617.00
634.91	1653.00
635.17	1681.00
635.42	1748.00
635.68	1730.00
635.93	1698.00
636.18	1716.00
636.44	1672.00
636.69	1611.00
636.95	1619.00
637.20	1676.00
637.46	1711.00
637.71	1721.00
637.97	1707.00
638.22	1628.00
638.48	1613.00
638.73	1657.00
638.99	1700.00
639.24	1698.00
639.50	1605.00
639.75	1522.00
640.01	1511.00
640.26	1572.00
640.52	1563.00
640.77	1505.00
641.03	1458.00
641.28	1432.00
641.54	1397.00
641.79	1335.00
642.04	1349.00
642.30	1333.00
642.55	1316.00
642.81	1263.00
643.06	1238.00
643.32	1271.00
643.57	1324.00
643.83	1222.00
644.08	1181.00
644.34	1172.00
644.59	1180.00
644.85	1141.00
645.10	1160.00
645.35	1166.00
645.61	1158.00
645.86	1141.00
646.12	1102.00
646.37	1119.00
646.63	1100.00
646.88	1013.00
647.14	1025.00
647.39	1041.00
647.65	1060.00
647.90	1007.00
648.15	1014.00
648.41	1026.00
648.66	1033.00
648.92	964.00
649.17	989.00
649.43	997.00
649.68	983.00
649.94	958.00
650.19	935.00
650.44	977.00
650.70	976.00
650.95	914.00
651.21	940.00
651.46	977.00
651.72	980.00
651.97	950.00
652.23	926.00
652.48	944.00
652.73	960.00
652.99	912.00
653.24	929.00
653.50	935.00
653.75	949.00
654.01	929.00
654.26	915.00
654.51	906.00
654.77	925.00
655.02	913.00
655.28	888.00
655.53	908.00
655.79	950.00
656.04	924.00
656.29	930.00
656.55	919.00
656.80	923.00
657.06	883.00
657.31	891.00
657.56	912.00
657.82	889.00
658.07	879.00
658.33	896.00
658.58	913.00
658.84	934.00
659.09	889.00
659.34	906.00
659.60	918.00
659.85	914.00
660.11	875.00
660.36	898.00
660.61	905.00
660.87	885.00
661.12	853.00
661.38	882.00
661.63	883.00
661.88	902.00
662.14	898.00
662.39	897.00
662.65	924.00
662.90	932.00
663.15	876.00
663.41	901.00
663.66	931.00
663.92	945.00
664.17	871.00
664.42	897.00
664.68	929.00
664.93	916.00
665.19	863.00
665.44	869.00
665.69	888.00
665.95	906.00
666.20	850.00
666.45	897.00
666.71	910.00
666.96	903.00
667.22	844.00
667.47	857.00
667.72	883.00
667.98	901.00
668.23	865.00
668.49	921.00
668.74	919.00
668.99	917.00
669.25	888.00
669.50	873.00
669.75	879.00
670.01	903.00
670.26	837.00
670.52	866.00
670.77	909.00
671.02	905.00
671.28	883.00
671.53	882.00
671.78	910.00
672.04	915.00
672.29	881.00
672.54	865.00
672.80	909.00
673.05	910.00
673.31	851.00
673.56	894.00
673.81	911.00
674.07	892.00
674.32	887.00
674.57	890.00
674.83	899.00
675.08	906.00
675.33	887.00
675.59	888.00
675.84	906.00
676.09	886.00
676.35	878.00
676.60	893.00
676.86	895.00
677.11	919.00
677.36	866.00
677.62	885.00
677.87	932.00
678.12	945.00
678.38	874.00
678.63	890.00
678.88	916.00
679.14	925.00
679.39	847.00
679.64	896.00
679.90	886.00
680.15	904.00
680.40	903.00
680.66	881.00
680.91	899.00
681.16	886.00
681.42	856.00
681.67	882.00
681.92	896.00
682.18	923.00
682.43	856.00
682.68	860.00
682.94	879.00
683.19	873.00
683.44	869.00
683.70	885.00
683.95	901.00
684.20	896.00
684.46	891.00
684.71	893.00
684.96	884.00
685.22	904.00
685.47	873.00
685.72	874.00
685.98	890.00
686.23	862.00
686.48	864.00
686.74	899.00
686.99	933.00
687.24	916.00
687.50	853.00
687.75	862.00
688.00	875.00
688.25	890.00
688.51	882.00
688.76	903.00
689.01	882.00
689.27	863.00
689.52	848.00
689.77	875.00
690.03	863.00
690.28	868.00
690.53	867.00
690.79	880.00
691.04	886.00
691.29	910.00
691.54	843.00
691.80	871.00
692.05	897.00
692.30	912.00
692.56	875.00
692.81	891.00
693.06	879.00
693.32	864.00
693.57	858.00
693.82	898.00
694.07	916.00
694.33	905.00
694.58	838.00
694.83	878.00
695.09	884.00
695.34	898.00
695.59	875.00
695.84	876.00
696.10	904.00
696.35	909.00
696.60	836.00
696.86	862.00
697.11	911.00
697.36	900.00
697.61	865.00
697.87	885.00
698.12	884.00
698.37	883.00
698.63	861.00
698.88	867.00
699.13	891.00
699.38	906.00
699.64	861.00
699.89	871.00
700.14	873.00
700.39	897.00
700.65	867.00
700.90	887.00
701.15	902.00
701.40	916.00
701.66	856.00
701.91	868.00
702.16	892.00
702.42	892.00
702.67	841.00
702.92	863.00
703.17	881.00
703.43	886.00
703.68	874.00
703.93	905.00
704.18	930.00
704.44	903.00
704.69	891.00
704.94	908.00
705.19	893.00
705.45	914.00
705.70	893.00
705.95	873.00
706.20	886.00
706.46	897.00
706.71	871.00
706.96	874.00
707.21	898.00
707.47	891.00
707.72	878.00
707.97	881.00
708.22	912.00
708.48	925.00
708.73	866.00
708.98	855.00
709.23	878.00
709.49	880.00
709.74	878.00
709.99	871.00
710.24	884.00
710.50	909.00
710.75	894.00
711.00	901.00
711.25	891.00
711.50	875.00
711.76	872.00
712.01	867.00
712.26	884.00
712.51	893.00
712.77	856.00
713.02	886.00
713.27	876.00
713.52	897.00
713.78	866.00
714.03	883.00
714.28	865.00
714.53	901.00
714.78	885.00
715.04	911.00
715.29	889.00
715.54	901.00
715.79	866.00
716.05	883.00
716.30	892.00
716.55	894.00
716.80	872.00
717.05	905.00
717.31	911.00
717.56	908.00
717.81	870.00
718.06	865.00
718.31	857.00
718.57	887.00
718.82	878.00
719.07	907.00
719.32	880.00
719.57	890.00
719.83	878.00
720.08	902.00
720.33	878.00
720.58	852.00
720.83	842.00
721.09	915.00
721.34	908.00
721.59	911.00
721.84	850.00
722.09	866.00
722.35	891.00
722.60	884.00
722.85	856.00
723.10	906.00
723.35	885.00
723.61	893.00
723.86	885.00
724.11	901.00
724.36	883.00
724.61	875.00
724.87	879.00
725.12	864.00
725.37	869.00
725.62	869.00
725.87	863.00
726.12	855.00
726.38	866.00
726.63	906.00
726.88	877.00
727.13	893.00
727.38	882.00
727.64	897.00
727.89	850.00
728.14	862.00
728.39	852.00
728.64	882.00
728.89	866.00
729.15	887.00
729.40	900.00
729.65	902.00
729.90	844.00
730.15	875.00
730.40	889.00
730.66	902.00
730.91	862.00
731.16	882.00
731.41	894.00
731.66	901.00
731.91	876.00
732.17	887.00
732.42	909.00
732.67	886.00
732.92	848.00
733.17	885.00
733.42	901.00
733.68	894.00
733.93	858.00
734.18	863.00
734.43	859.00
734.68	883.00
734.93	858.00
735.18	878.00
735.44	899.00
735.69	908.00
735.94	857.00
736.19	867.00
736.44	884.00
736.69	920.00
736.95	872.00
737.20	895.00
737.45	902.00
737.70	913.00
737.95	880.00
738.20	897.00
738.45	916.00
738.70	910.00
738.96	882.00
739.21	890.00
739.46	906.00
739.71	915.00
739.96	878.00
740.21	910.00
740.46	957.00
740.72	944.00
740.97	876.00
741.22	898.00
741.47	866.00
741.72	900.00
741.97	881.00
742.22	894.00
742.47	885.00
742.73	877.00
742.98	848.00
743.23	857.00
743.48	868.00
743.73	891.00
743.98	878.00
744.23	894.00
744.48	898.00
744.74	876.00
744.99	845.00
745.24	886.00
745.49	866.00
745.74	901.00
745.99	870.00
746.24	897.00
746.49	867.00
746.74	874.00
747.00	884.00
747.25	888.00
747.50	846.00
747.75	874.00
748.00	829.00
748.25	856.00
748.50	866.00
748.75	911.00
749.00	914.00
749.26	932.00
749.51	922.00
749.76	905.00
750.01	848.00
750.26	886.00
750.51	920.00
750.76	907.00
751.01	860.00
751.26	890.00
751.51	898.00
751.77	902.00
752.02	878.00
752.27	886.00
752.52	885.00
752.77	907.00
753.02	878.00
753.27	891.00
753.52	879.00
753.77	885.00
754.02	873.00
754.27	878.00
754.52	866.00
754.78	894.00
755.03	878.00
755.28	875.00
755.53	902.00
755.78	882.00
756.03	856.00
756.28	884.00
756.53	894.00
756.78	900.00
757.03	882.00
757.28	901.00
757.53	904.00
757.79	859.00
758.04	858.00
758.29	919.00
758.54	921.00
758.79	905.00
759.04	851.00
759.29	866.00
759.54	877.00
759.79	872.00
760.04	883.00
760.29	885.00
760.54	880.00
760.79	872.00
761.04	871.00
761.29	892.00
761.55	869.00
761.80	887.00
762.05	846.00
762.30	875.00
762.55	886.00
762.80	920.00
763.05	909.00
763.30	896.00
763.55	902.00
763.80	904.00
764.05	852.00
764.30	880.00
764.55	921.00
764.80	892.00
765.05	863.00
765.30	901.00
765.55	880.00
765.80	872.00
766.05	853.00
766.30	889.00
766.56	889.00
766.81	904.00
767.06	878.00
767.31	879.00
767.56	861.00
767.81	886.00
768.06	847.00
768.31	870.00
768.56	890.00
768.81	957.00
769.06	864.00
769.31	878.00
769.56	877.00
769.81	919.00
770.06	866.00
770.31	868.00
770.56	880.00
770.81	869.00
771.06	850.00
771.31	876.00
771.56	881.00
771.81	905.00
772.06	860.00
772.31	901.00
772.56	909.00
772.81	905.00
773.06	872.00
773.31	897.00
773.56	884.00
773.81	853.00
774.06	853.00
774.31	880.00
774.56	885.00
774.81	907.00
775.06	896.00
775.31	917.00
775.56	917.00
775.81	870.00
776.06	849.00
776.31	863.00
776.56	889.00
776.82	893.00
777.07	856.00
777.32	875.00
777.57	874.00
777.82	920.00
778.07	875.00
778.32	864.00
778.57	884.00
778.82	932.00
779.07	875.00
779.32	884.00
779.57	863.00
779.82	884.00
780.07	869.00
780.32	882.00
780.56	868.00
780.81	909.00
781.06	854.00
781.31	870.00
781.56	900.00
781.81	901.00
782.06	856.00
782.31	884.00
782.56	896.00
782.81	906.00
783.06	860.00
783.31	878.00
783.56	872.00
783.81	909.00
784.06	868.00
784.31	871.00
784.56	866.00
784.81	941.00
785.06	882.00
785.31	896.00
785.56	870.00
785.81	868.00
786.06	854.00
786.31	888.00
786.56	866.00
786.81	902.00
787.06	884.00
787.31	885.00
787.56	873.00
787.81	869.00
788.06	859.00
788.31	905.00
788.56	888.00
788.81	924.00
789.06	883.00
789.31	880.00
789.56	880.00
789.81	888.00
790.06	868.00
790.31	909.00
790.56	886.00
790.80	884.00
791.05	864.00
791.30	866.00
791.55	858.00
791.80	880.00
792.05	869.00
792.30	857.00
792.55	864.00
792.80	897.00
793.05	868.00
793.30	867.00
793.55	884.00
793.80	896.00
794.05	861.00
794.30	881.00
794.55	891.00
794.80	916.00
795.05	863.00
795.30	875.00
795.54	876.00
795.79	889.00
796.04	851.00
796.29	886.00
796.54	882.00
796.79	914.00
797.04	874.00
797.29	884.00
797.54	904.00
797.79	904.00
798.04	872.00
798.29	860.00
798.54	866.00
798.79	874.00
799.04	868.00
799.29	900.00
799.53	886.00
799.78	895.00
800.03	865.00
800.28	868.00
800.53	873.00
800.78	925.00
801.03	876.00
801.28	893.00
801.53	874.00
801.78	905.00
802.03	875.00
802.28	896.00
802.52	906.00
802.77	919.00
803.02	899.00
803.27	891.00
803.52	847.00
803.77	897.00
804.02	897.00
804.27	914.00
804.52	912.00
804.77	927.00
805.02	872.00
805.27	886.00
805.51	875.00
805.76	916.00
806.01	878.00
806.26	874.00
806.51	886.00
806.76	936.00
807.01	900.00
807.26	858.00
807.51	890.00
807.76	880.00
808.00	856.00
808.25	888.00
808.50	892.00
808.75	881.00
809.00	849.00
809.25	888.00
809.50	883.00
809.75	916.00
810.00	894.00
810.24	869.00
810.49	846.00
810.74	854.00
810.99	866.00
811.24	888.00
811.49	889.00
811.74	890.00
811.99	840.00
812.24	885.00
812.48	866.00
812.73	880.00
812.98	849.00
813.23	859.00
813.48	884.00
813.73	885.00
813.98	817.00
814.23	862.00
814.47	870.00
814.72	885.00
814.97	861.00
815.22	896.00
815.47	872.00
815.72	881.00
815.97	844.00
816.22	860.00
816.46	877.00
816.71	898.00
816.96	877.00
817.21	900.00
817.46	868.00
817.71	883.00
817.96	870.00
818.20	887.00
818.45	858.00
818.70	885.00
818.95	860.00
819.20	888.00
819.45	892.00
819.70	885.00
819.94	847.00
820.19	882.00
820.44	878.00
820.69	904.00
820.94	874.00
821.19	916.00
821.44	938.00
821.68	935.00
821.93	882.00
822.18	893.00
822.43	916.00
822.68	901.00
822.93	863.00
823.17	874.00
823.42	888.00
823.67	888.00
823.92	839.00
824.17	889.00
824.42	889.00
824.67	918.00
824.91	886.00
825.16	883.00
825.41	890.00
825.66	908.00
825.91	861.00
826.16	865.00
826.40	893.00
826.65	909.00
826.90	870.00
827.15	890.00
827.40	916.00
827.65	923.00
827.89	833.00
828.14	858.00
828.39	878.00
828.64	875.00
828.89	850.00
829.13	866.00
829.38	862.00
829.63	900.00
829.88	859.00
830.13	862.00
830.38	870.00
830.62	891.00
830.87	877.00
831.12	884.00
831.37	899.00
831.62	918.00
831.86	861.00
832.11	884.00
832.36	886.00
832.61	897.00
832.86	857.00
833.10	891.00
833.35	903.00
833.60	915.00
833.85	875.00
834.10	892.00
834.35	906.00
834.59	918.00
834.84	866.00
835.09	899.00
835.34	868.00
835.59	881.00
835.83	881.00
836.08	887.00
836.33	884.00
836.58	889.00
836.83	858.00
837.07	891.00
837.32	896.00
837.57	892.00
837.82	872.00
838.06	895.00
838.31	904.00
838.56	929.00
838.81	877.00
839.06	891.00
839.30	892.00
839.55	900.00
839.80	866.00
840.05	884.00
840.30	913.00
840.54	927.00
840.79	860.00
841.04	892.00
841.29	913.00
841.53	901.00
841.78	856.00
842.03	854.00
842.28	860.00
842.53	861.00
842.77	873.00
843.02	902.00
843.27	888.00
843.52	899.00
843.76	888.00
844.01	897.00
844.26	869.00
844.51	888.00
844.75	857.00
845.00	857.00
845.25	898.00
845.50	903.00
845.75	868.00
845.99	893.00
846.24	884.00
846.49	909.00
846.74	856.00
846.98	862.00
847.23	859.00
847.48	891.00
847.73	864.00
847.97	872.00
848.22	915.00
848.47	903.00
848.72	860.00
848.96	861.00
849.21	885.00
849.46	875.00
849.71	851.00
849.95	871.00
850.20	885.00
850.45	905.00
850.70	829.00
850.94	872.00
851.19	871.00
851.44	873.00
851.69	858.00
851.93	876.00
852.18	902.00
852.43	891.00
852.68	867.00
852.92	903.00
853.17	921.00
853.42	918.00
853.66	885.00
853.91	905.00
854.16	893.00
854.41	926.00
854.65	872.00
854.90	871.00
855.15	872.00
855.40	891.00
855.64	884.00
855.89	876.00
856.14	877.00
856.39	866.00
856.63	846.00
856.88	867.00
857.13	863.00
857.37	877.00
857.62	850.00
857.87	865.00
858.12	877.00
858.36	906.00
858.61	845.00
858.86	872.00
859.10	906.00
859.35	889.00
859.60	855.00
859.85	834.00
860.09	850.00
860.34	895.00
860.59	862.00
860.83	875.00
861.08	872.00
861.33	915.00
861.58	867.00
861.82	856.00
862.07	882.00
862.32	891.00
862.56	845.00
862.81	876.00
863.06	875.00
863.30	870.00
863.55	871.00
863.80	890.00
864.05	902.00
864.29	885.00
864.54	876.00
864.79	894.00
865.03	892.00
865.28	902.00
865.53	882.00
865.77	861.00
866.02	914.00
866.27	934.00
866.51	880.00
866.76	858.00
867.01	865.00
867.26	908.00
867.50	862.00
867.75	852.00
868.00	881.00
868.24	899.00
868.49	852.00
868.74	861.00
868.98	861.00
869.23	881.00
869.48	859.00
869.72	866.00
869.97	874.00
870.22	897.00
870.46	865.00
870.71	876.00
870.96	896.00
871.20	907.00
871.45	849.00
871.70	881.00
871.94	909.00
872.19	906.00
872.44	881.00
872.68	869.00
872.93	872.00
873.18	882.00
873.42	846.00
873.67	890.00
873.92	912.00
874.16	881.00
874.41	868.00
874.66	884.00
874.90	894.00
875.15	932.00
875.40	896.00
875.64	889.00
875.89	876.00
876.14	892.00
876.38	878.00
876.63	876.00
876.88	884.00
877.12	906.00
877.37	847.00
877.62	883.00
877.86	875.00
878.11	889.00
878.36	852.00
878.60	877.00
878.85	889.00
879.09	890.00
879.34	874.00
879.59	892.00
879.83	901.00
880.08	920.00
880.33	885.00
880.57	888.00
880.82	889.00
881.07	898.00
881.31	882.00
881.56	867.00
881.80	863.00
882.05	880.00
882.30	827.00
882.54	864.00
882.79	908.00
883.04	938.00
883.28	884.00
883.53	883.00
883.77	895.00
884.02	904.00
884.27	863.00
884.51	860.00
884.76	873.00
885.01	911.00
885.25	856.00
885.50	883.00
885.74	867.00
885.99	912.00
886.24	870.00
886.48	884.00
886.73	910.00
886.98	944.00
887.22	896.00
887.47	900.00
887.71	907.00
887.96	904.00
888.21	874.00
888.45	863.00
888.70	876.00
888.94	902.00
889.19	844.00
889.44	853.00
889.68	893.00
889.93	925.00
890.17	879.00
890.42	858.00
890.67	897.00
890.91	978.00
891.16	867.00
891.40	857.00
891.65	886.00
891.90	904.00
892.14	836.00
892.39	868.00
892.63	879.00
892.88	897.00
893.13	877.00
893.37	858.00
893.62	880.00
893.86	885.00
894.11	861.00
894.36	881.00
894.60	859.00
894.85	865.00
895.09	861.00
895.34	900.00
895.59	875.00
895.83	876.00
896.08	840.00
896.32	860.00
896.57	880.00
896.81	881.00
897.06	854.00
897.31	862.00
897.55	886.00
897.80	882.00
898.04	839.00
898.29	864.00
898.53	886.00
898.78	913.00
899.03	881.00
899.27	874.00
899.52	895.00
899.76	916.00
900.01	864.00
900.25	884.00
900.50	890.00
900.75	898.00
900.99	857.00
901.24	941.00
901.48	896.00
901.73	882.00
901.97	845.00
902.22	872.00
902.47	892.00
902.71	885.00
902.96	856.00
903.20	890.00
903.45	889.00
903.69	902.00
903.94	865.00
904.18	844.00
904.43	892.00
904.68	898.00
904.92	840.00
905.17	870.00
905.41	892.00
905.66	913.00
905.90	900.00
906.15	878.00
906.39	905.00
906.64	898.00
906.88	853.00
907.13	870.00
907.38	900.00
907.62	909.00
907.87	868.00
908.11	913.00
908.36	874.00
908.60	885.00
908.85	830.00
909.09	867.00
909.34	881.00
909.58	888.00
909.83	851.00
910.07	873.00
910.32	917.00
910.56	920.00
910.81	855.00
911.06	901.00
911.30	888.00
911.55	883.00
911.79	863.00
912.04	865.00
912.28	860.00
912.53	903.00
912.77	865.00
913.02	885.00
913.26	880.00
913.51	879.00
913.75	868.00
914.00	869.00
914.24	892.00
914.49	893.00
914.73	856.00
914.98	890.00
915.22	911.00
915.47	890.00
915.71	852.00
915.96	882.00
916.20	889.00
916.45	862.00
916.69	841.00
916.94	864.00
917.18	865.00
917.43	898.00
917.67	857.00
917.92	874.00
918.16	895.00
918.41	897.00
918.65	846.00
918.90	853.00
919.14	849.00
919.39	890.00
919.63	858.00
919.88	848.00
920.12	895.00
920.37	885.00
920.61	838.00
920.86	874.00
921.10	887.00
921.35	866.00
921.59	843.00
921.84	873.00
922.08	887.00
922.33	901.00
922.57	854.00
922.82	855.00
923.06	876.00
923.31	883.00
923.55	837.00
923.80	878.00
924.04	872.00
924.29	913.00
924.53	873.00
924.78	873.00
925.02	868.00
925.27	883.00
925.51	868.00
925.76	897.00
926.00	880.00
926.25	881.00
926.49	856.00
926.73	879.00
926.98	893.00
927.22	921.00
927.47	892.00
927.71	876.00
927.96	897.00
928.20	897.00
928.45	883.00
928.69	915.00
928.94	906.00
929.18	887.00
929.43	888.00
929.67	888.00
929.91	902.00
930.16	909.00
930.40	856.00
930.65	858.00
930.89	893.00
931.14	921.00
931.38	875.00
931.63	893.00
931.87	895.00
932.12	904.00
932.36	841.00
932.60	864.00
932.85	905.00
933.09	875.00
933.34	836.00
933.58	885.00
933.83	879.00
934.07	897.00
934.32	867.00
934.56	882.00
934.80	906.00
935.05	941.00
935.29	892.00
935.54	902.00
935.78	878.00
936.03	885.00
936.27	842.00
936.52	864.00
936.76	874.00
937.00	874.00
937.25	859.00
937.49	862.00
937.74	897.00
937.98	892.00
938.23	845.00
938.47	853.00
938.71	864.00
938.96	863.00
939.20	843.00
939.45	854.00
939.69	876.00
939.94	900.00
940.18	848.00
940.42	881.00
940.67	898.00
940.91	893.00
941.16	868.00
941.40	858.00
941.64	872.00
941.89	903.00
942.13	855.00
942.38	881.00
942.62	965.00
942.87	922.00
943.11	885.00
943.35	879.00
943.60	894.00
943.84	929.00
944.09	899.00
944.33	913.00
944.57	916.00
944.82	890.00
945.06	844.00
945.31	864.00
945.55	881.00
945.79	905.00
946.04	861.00
946.28	857.00
946.53	882.00
946.77	886.00
947.01	850.00
947.26	882.00
947.50	870.00
947.75	881.00
947.99	874.00
948.23	882.00
948.48	889.00
948.72	896.00
948.97	861.00
949.21	864.00
949.45	881.00
949.70	905.00
949.94	883.00
950.18	872.00
950.43	887.00
950.67	895.00
950.92	871.00
951.16	859.00
951.40	872.00
951.65	889.00
951.89	870.00
952.13	885.00
952.38	908.00
952.62	900.00
952.87	851.00
953.11	890.00
953.35	918.00
953.60	896.00
953.84	828.00
954.08	835.00
954.33	871.00
954.57	900.00
954.82	878.00
955.06	873.00
955.30	875.00
955.55	868.00
955.79	870.00
956.03	868.00
956.28	855.00
956.52	872.00
956.76	866.00
957.01	876.00
957.25	870.00
957.50	888.00
957.74	849.00
957.98	870.00
958.23	906.00
958.47	921.00
958.71	885.00
958.96	888.00
959.20	909.00
959.44	879.00
959.69	866.00
959.93	892.00
960.17	885.00
960.42	897.00
960.66	873.00
960.90	896.00
961.15	889.00
961.39	887.00
961.64	848.00
961.88	842.00
962.12	897.00
962.37	901.00
962.61	858.00
962.85	874.00
963.10	894.00
963.34	912.00
963.58	858.00
963.83	888.00
964.07	884.00
964.31	893.00
964.56	881.00
964.80	871.00
965.04	878.00
965.29	882.00
965.53	843.00
965.77	852.00
966.02	835.00
966.26	863.00
966.50	835.00
966.74	877.00
966.99	910.00
967.23	901.00
967.47	854.00
967.72	870.00
967.96	877.00
968.20	878.00
968.45	856.00
968.69	864.00
968.93	864.00
969.18	896.00
969.42	882.00
969.66	885.00
969.91	875.00
970.15	891.00
970.39	854.00
970.64	884.00
970.88	885.00
971.12	888.00
971.36	865.00
971.61	861.00
971.85	878.00
972.09	883.00
972.34	855.00
972.58	882.00
972.82	904.00
973.07	920.00
973.31	848.00
973.55	877.00
973.79	892.00
974.04	912.00
974.28	874.00
974.52	870.00
974.77	876.00
975.01	908.00
975.25	868.00
975.50	891.00
975.74	896.00
975.98	890.00
976.22	869.00
976.47	867.00
976.71	882.00
976.95	894.00
977.20	890.00
977.44	876.00
977.68	872.00
977.92	900.00
978.17	854.00
978.41	874.00
978.65	900.00
978.90	898.00
979.14	864.00
979.38	866.00
979.62	876.00
979.87	860.00
980.11	838.00
980.35	870.00
980.59	885.00
980.84	868.00
981.08	836.00
981.32	862.00
981.57	891.00
981.81	884.00
982.05	861.00
982.29	848.00
982.54	873.00
982.78	899.00
983.02	874.00
983.26	888.00
983.51	900.00
983.75	901.00
983.99	864.00
984.23	885.00
984.48	884.00
984.72	898.00
984.96	849.00
985.20	846.00
985.45	910.00
985.69	899.00
985.93	854.00
986.17	899.00
986.42	907.00
986.66	897.00
986.90	826.00
987.14	844.00
987.39	880.00
987.63	859.00
987.87	848.00
988.11	865.00
988.36	892.00
988.60	895.00
988.84	891.00
989.08	864.00
989.33	890.00
989.57	909.00
989.81	853.00
990.05	849.00
990.30	879.00
990.54	857.00
990.78	854.00
991.02	854.00
991.27	880.00
991.51	900.00
991.75	849.00
991.99	891.00
992.23	876.00
992.48	857.00
992.72	849.00
992.96	854.00
993.20	867.00
993.45	886.00
993.69	888.00
993.93	852.00
994.17	875.00
994.41	887.00
994.66	848.00
994.90	886.00
995.14	909.00
995.38	889.00
995.63	882.00
995.87	877.00
996.11	920.00
996.35	900.00
996.59	858.00
996.84	856.00
997.08	878.00
997.32	883.00
997.56	873.00
997.80	853.00
998.05	862.00
998.29	861.00
998.53	848.00
998.77	874.00
999.01	900.00
999.26	896.00
999.50	863.00
999.74	850.00
999.98	874.00
1000.22	908.00
1000.47	863.00
1000.71	863.00
1000.95	914.00
1001.19	907.00
1001.43	865.00
1001.68	878.00
1001.92	894.00
1002.16	867.00
1002.40	837.00
1002.64	860.00
1002.89	894.00
1003.13	888.00
1003.37	878.00
1003.61	864.00
1003.85	869.00
1004.10	884.00
1004.34	863.00
1004.58	845.00
1004.82	894.00
1005.06	904.00
1005.30	846.00
1005.55	848.00
1005.79	882.00
1006.03	873.00
1006.27	852.00
1006.51	852.00
1006.76	887.00
1007.00	904.00
1007.24	883.00
1007.48	883.00
1007.72	909.00
1007.96	907.00
1008.21	888.00
1008.45	894.00
1008.69	900.00
1008.93	921.00
1009.17	867.00
1009.41	900.00
1009.66	907.00
1009.90	890.00
1010.14	852.00
1010.38	872.00
1010.62	888.00
1010.86	913.00
1011.10	869.00
1011.35	869.00
1011.59	889.00
1011.83	848.00
1012.07	845.00
1012.31	865.00
1012.55	885.00
1012.80	890.00
1013.04	884.00
1013.28	884.00
1013.52	875.00
1013.76	897.00
1014.00	854.00
1014.24	882.00
1014.49	896.00
1014.73	917.00
1014.97	878.00
1015.21	874.00
1015.45	902.00
1015.69	886.00
1015.93	870.00
1016.18	875.00
1016.42	901.00
1016.66	900.00
1016.90	863.00
1017.14	865.00
1017.38	864.00
1017.62	884.00
1017.87	855.00
1018.11	863.00
1018.35	859.00
1018.59	889.00
1018.83	846.00
1019.07	883.00
1019.31	885.00
1019.55	902.00
1019.80	883.00
1020.04	887.00
1020.28	890.00
1020.52	893.00
1020.76	848.00
1021.00	845.00
1021.24	862.00
1021.48	870.00
1021.73	875.00
1021.97	888.00
1022.21	881.00
1022.45	876.00
1022.69	866.00
1022.93	844.00
1023.17	872.00
1023.41	906.00
1023.65	877.00
1023.90	906.00
1024.14	908.00
1024.38	860.00
1024.62	839.00
1024.86	867.00
1025.10	898.00
1025.34	894.00
1025.58	855.00
1025.82	876.00
1026.07	908.00
1026.31	906.00
1026.55	868.00
1026.79	873.00
1027.03	898.00
1027.27	898.00
1027.51	832.00
1027.75	846.00
1027.99	883.00
1028.23	918.00
1028.47	882.00
1028.72	876.00
1028.96	904.00
1029.20	896.00
1029.44	897.00
1029.68	899.00
1029.92	869.00
1030.16	893.00
1030.40	848.00
1030.64	849.00
1030.88	858.00
1031.12	865.00
1031.37	841.00
1031.61	873.00
1031.85	906.00
1032.09	916.00
1032.33	863.00
1032.57	907.00
1032.81	890.00
1033.05	927.00
1033.29	882.00
1033.53	870.00
1033.77	948.00
1034.01	928.00
1034.25	887.00
1034.50	872.00
1034.74	885.00
1034.98	910.00
1035.22	881.00
1035.46	893.00
1035.70	917.00
1035.94	908.00
1036.18	871.00
1036.42	871.00
1036.66	865.00
1036.90	880.00
1037.14	849.00
1037.38	866.00
1037.62	892.00
1037.86	896.00
1038.10	872.00
1038.35	869.00
1038.59	905.00
1038.83	910.00
1039.07	901.00
1039.31	924.00
1039.55	886.00
1039.79	891.00
1040.03	842.00
1040.27	860.00
1040.51	906.00
1040.75	910.00
1040.99	874.00
1041.23	884.00
1041.47	898.00
1041.71	913.00
1041.95	877.00
1042.19	870.00
1042.43	914.00
1042.67	906.00
1042.91	878.00
1043.15	862.00
1043.39	918.00
1043.64	902.00
1043.88	857.00
1044.12	874.00
1044.36	919.00
1044.60	922.00
1044.84	880.00
1045.08	890.00
1045.32	890.00
1045.56	898.00
1045.80	865.00
1046.04	866.00
1046.28	895.00
1046.52	915.00
1046.76	853.00
1047.00	869.00
1047.24	889.00
1047.48	886.00
1047.72	865.00
1047.96	868.00
1048.20	890.00
1048.44	889.00
1048.68	866.00
1048.92	882.00
1049.16	886.00
1049.40	893.00
1049.64	876.00
1049.88	883.00
1050.12	899.00
1050.36	916.00
1050.60	877.00
1050.84	883.00
1051.08	882.00
1051.32	876.00
1051.56	868.00
1051.80	856.00
1052.04	883.00
1052.28	912.00
1052.52	863.00
1052.76	848.00
1053.00	874.00
1053.24	896.00
1053.48	842.00
1053.72	850.00
1053.96	884.00
1054.20	889.00
1054.44	874.00
1054.68	895.00
1054.92	897.00
1055.16	849.00
1055.40	842.00
1055.64	872.00
1055.88	907.00
1056.12	929.00
1056.36	843.00
1056.60	854.00
1056.84	907.00
1057.08	887.00
1057.32	852.00
1057.56	858.00
1057.80	866.00
1058.04	898.00
1058.28	866.00
1058.52	872.00
1058.76	905.00
1059.00	921.00
1059.24	860.00
1059.48	852.00
1059.72	884.00
1059.96	888.00
1060.20	888.00
1060.44	898.00
1060.68	917.00
1060.92	880.00
1061.16	842.00
1061.40	876.00
1061.64	887.00
1061.88	887.00
1062.11	863.00
1062.35	861.00
1062.59	861.00
1062.83	914.00
1063.07	886.00
1063.31	857.00
1063.55	876.00
1063.79	912.00
1064.03	872.00
1064.27	860.00
1064.51	881.00
1064.75	892.00
1064.99	867.00
1065.23	875.00
1065.47	887.00
1065.71	912.00
1065.95	865.00
1066.19	889.00
1066.43	907.00
1066.67	901.00
1066.91	894.00
1067.15	873.00
1067.38	869.00
1067.62	881.00
1067.86	862.00
1068.10	896.00
1068.34	923.00
1068.58	923.00
1068.82	878.00
1069.06	834.00
1069.30	900.00
1069.54	916.00
1069.78	899.00
1070.02	882.00
1070.26	912.00
1070.50	922.00
1070.74	870.00
1070.98	908.00
1071.21	904.00
1071.45	900.00
1071.69	850.00
1071.93	864.00
1072.17	901.00
1072.41	896.00
1072.65	893.00
1072.89	900.00
1073.13	900.00
1073.37	878.00
1073.61	870.00
1073.85	881.00
1074.09	885.00
1074.32	897.00
1074.56	873.00
1074.80	937.00
1075.04	1148.00
1075.28	993.00
1075.52	873.00
1075.76	887.00
1076.00	898.00
1076.24	885.00
1076.48	882.00
1076.72	885.00
1076.96	902.00
1077.19	894.00
1077.43	852.00
1077.67	906.00
1077.91	901.00
1078.15	876.00
1078.39	861.00
1078.63	868.00
1078.87	894.00
1079.11	895.00
1079.35	853.00
1079.58	850.00
1079.82	868.00
1080.06	880.00
1080.30	844.00
1080.54	877.00
1080.78	919.00
1081.02	898.00
1081.26	886.00
1081.50	902.00
1081.74	896.00
1081.97	902.00
1082.21	860.00
1082.45	871.00
1082.69	872.00
1082.93	871.00
1083.17	865.00
1083.41	864.00
1083.65	903.00
1083.88	922.00
1084.12	890.00
1084.36	888.00
1084.60	894.00
1084.84	887.00
1085.08	854.00
1085.32	871.00
1085.56	916.00
1085.80	901.00
1086.03	863.00
1086.27	858.00
1086.51	884.00
1086.75	915.00
1086.99	882.00
1087.23	859.00
1087.47	912.00
1087.70	894.00
1087.94	872.00
1088.18	897.00
1088.42	934.00
1088.66	888.00
1088.90	833.00
1089.14	855.00
1089.38	877.00
1089.61	883.00
1089.85	862.00
1090.09	852.00
1090.33	908.00
1090.57	912.00
1090.81	844.00
1091.05	873.00
1091.28	903.00
1091.52	903.00
1091.76	858.00
1092.00	861.00
1092.24	886.00
1092.48	917.00
1092.71	855.00
1092.95	885.00
1093.19	901.00
1093.43	894.00
1093.67	858.00
1093.91	889.00
1094.15	899.00
1094.38	911.00
1094.62	863.00
1094.86	870.00
1095.10	893.00
1095.34	882.00
1095.58	860.00
1095.81	888.00
1096.05	909.00
1096.29	900.00
1096.53	848.00
1096.77	877.00
1097.01	873.00
1097.24	909.00
1097.48	869.00
1097.72	904.00
1097.96	897.00
1098.20	909.00
1098.44	852.00
1098.67	848.00
1098.91	891.00
1099.15	898.00
1099.39	855.00
1099.63	864.00
1099.86	901.00
1100.10	877.00
1100.34	853.00
1100.58	859.00
1100.82	886.00
1101.06	896.00
1101.29	841.00
1101.53	877.00
1101.77	906.00
1102.01	875.00
1102.25	851.00
1102.48	891.00
1102.72	938.00
1102.96	908.00
1103.20	857.00
1103.44	865.00
1103.67	872.00
1103.91	900.00
1104.15	839.00
1104.39	870.00
1104.63	884.00
1104.86	872.00
1105.10	858.00
1105.34	878.00
1105.58	869.00
1105.82	889.00
1106.05	870.00
1106.29	875.00
1106.53	887.00
1106.77	942.00
1107.01	876.00
1107.24	889.00
1107.48	934.00
1107.72	900.00
1107.96	832.00
1108.20	878.00
1108.43	908.00
1108.67	887.00
1108.91	856.00
1109.15	854.00
1109.39	877.00
1109.62	883.00
1109.86	853.00
1110.10	871.00
1110.34	934.00
1110.57	939.00
1110.81	887.00
1111.05	885.00
1111.29	919.00
1111.53	934.00
1111.76	849.00
1112.00	878.00
1112.24	900.00
1112.48	890.00
1112.71	854.00
1112.95	860.00
1113.19	903.00
1113.43	876.00
1113.66	840.00
1113.90	876.00
1114.14	890.00
1114.38	899.00
1114.62	859.00
1114.85	885.00
1115.09	886.00
1115.33	937.00
1115.57	870.00
1115.80	864.00
1116.04	885.00
1116.28	913.00
1116.52	878.00
1116.75	872.00
1116.99	910.00
1117.23	918.00
1117.47	882.00
1117.70	890.00
1117.94	937.00
1118.18	890.00
1118.42	848.00
1118.65	898.00
1118.89	893.00
1119.13	887.00
1119.37	853.00
1119.60	876.00
1119.84	894.00
>>>>>End Processed Spectral Data<<<<<
