SpectraSuite Data File
++++++++++++++++++++++++++++++++++++
Date: Fri Dec 06 15:48:27 CET 2024
User: student
Dark Spectrum Present: No
Reference Spectrum Present: No
Number of Sampled Component Spectra: 1
Spectrometers: HR4C155
Integration Time (usec): 100000 (HR4C155)
Spectra Averaged: 1 (HR4C155)
Boxcar Smoothing: 0 (HR4C155)
Correct for Electrical Dark: No (HR4C155)
Strobe/Lamp Enabled: No (HR4C155)
Correct for Detector Non-linearity: No (HR4C155)
Correct for Stray Light: No (HR4C155)
Number of Pixels in Processed Spectrum: 3648
>>>>>Begin Processed Spectral Data<<<<<
195.39	652.00
195.66	652.00
195.93	652.00
196.20	681.00
196.46	723.00
196.73	840.00
197.00	855.00
197.27	827.00
197.54	859.00
197.81	869.00
198.08	871.00
198.35	881.00
198.61	904.00
198.88	870.00
199.15	865.00
199.42	878.00
199.69	891.00
199.96	852.00
200.23	873.00
200.49	877.00
200.76	915.00
201.03	883.00
201.30	876.00
201.57	928.00
201.84	938.00
202.11	909.00
202.38	914.00
202.64	912.00
202.91	936.00
203.18	869.00
203.45	935.00
203.72	1005.00
203.99	918.00
204.25	912.00
204.52	904.00
204.79	936.00
205.06	933.00
205.33	885.00
205.60	902.00
205.87	939.00
206.13	933.00
206.40	889.00
206.67	885.00
206.94	929.00
207.21	923.00
207.48	909.00
207.75	911.00
208.01	950.00
208.28	930.00
208.55	888.00
208.82	916.00
209.09	923.00
209.36	945.00
209.62	916.00
209.89	932.00
210.16	961.00
210.43	961.00
210.70	889.00
210.97	896.00
211.23	921.00
211.50	937.00
211.77	908.00
212.04	919.00
212.31	933.00
212.58	940.00
212.84	924.00
213.11	925.00
213.38	890.00
213.65	918.00
213.92	890.00
214.18	907.00
214.45	959.00
214.72	948.00
214.99	880.00
215.26	901.00
215.53	879.00
215.79	916.00
216.06	928.00
216.33	923.00
216.60	900.00
216.87	939.00
217.13	871.00
217.40	897.00
217.67	938.00
217.94	962.00
218.21	890.00
218.48	937.00
218.74	990.00
219.01	960.00
219.28	880.00
219.55	875.00
219.82	921.00
220.08	935.00
220.35	908.00
220.62	914.00
220.89	955.00
221.16	993.00
221.42	928.00
221.69	917.00
221.96	935.00
222.23	949.00
222.50	935.00
222.76	939.00
223.03	917.00
223.30	901.00
223.57	880.00
223.84	885.00
224.10	912.00
224.37	943.00
224.64	897.00
224.91	911.00
225.18	952.00
225.44	946.00
225.71	901.00
225.98	941.00
226.25	963.00
226.51	948.00
226.78	894.00
227.05	910.00
227.32	924.00
227.59	931.00
227.85	923.00
228.12	918.00
228.39	943.00
228.66	968.00
228.92	958.00
229.19	928.00
229.46	946.00
229.73	907.00
230.00	893.00
230.26	931.00
230.53	941.00
230.80	925.00
231.07	881.00
231.33	886.00
231.60	919.00
231.87	934.00
232.14	898.00
232.41	943.00
232.67	934.00
232.94	942.00
233.21	890.00
233.48	917.00
233.74	920.00
234.01	898.00
234.28	872.00
234.55	896.00
234.81	924.00
235.08	978.00
235.35	906.00
235.62	889.00
235.88	919.00
236.15	931.00
236.42	915.00
236.69	919.00
236.95	944.00
237.22	916.00
237.49	903.00
237.76	886.00
238.02	934.00
238.29	981.00
238.56	917.00
238.83	898.00
239.09	911.00
239.36	970.00
239.63	920.00
239.90	937.00
240.16	959.00
240.43	1004.00
240.70	920.00
240.97	893.00
241.23	909.00
241.50	925.00
241.77	889.00
242.04	908.00
242.30	884.00
242.57	906.00
242.84	877.00
243.11	890.00
243.37	882.00
243.64	952.00
243.91	912.00
244.18	894.00
244.44	877.00
244.71	901.00
244.98	903.00
245.24	920.00
245.51	938.00
245.78	949.00
246.05	883.00
246.31	883.00
246.58	935.00
246.85	918.00
247.12	901.00
247.38	928.00
247.65	926.00
247.92	922.00
248.18	899.00
248.45	909.00
248.72	924.00
248.99	936.00
249.25	885.00
249.52	910.00
249.79	949.00
250.05	937.00
250.32	890.00
250.59	899.00
250.86	919.00
251.12	913.00
251.39	888.00
251.66	924.00
251.92	965.00
252.19	948.00
252.46	888.00
252.73	937.00
252.99	938.00
253.26	943.00
253.53	898.00
253.79	914.00
254.06	917.00
254.33	901.00
254.60	878.00
254.86	890.00
255.13	952.00
255.40	970.00
255.66	907.00
255.93	921.00
256.20	939.00
256.46	922.00
256.73	895.00
257.00	928.00
257.26	954.00
257.53	946.00
257.80	931.00
258.07	925.00
258.33	966.00
258.60	952.00
258.87	887.00
259.13	911.00
259.40	909.00
259.67	958.00
259.93	918.00
260.20	925.00
260.47	942.00
260.73	912.00
261.00	887.00
261.27	904.00
261.53	941.00
261.80	918.00
262.07	876.00
262.34	905.00
262.60	881.00
262.87	920.00
263.14	875.00
263.40	931.00
263.67	911.00
263.94	912.00
264.20	885.00
264.47	878.00
264.74	878.00
265.00	914.00
265.27	878.00
265.54	894.00
265.80	944.00
266.07	954.00
266.34	894.00
266.60	909.00
266.87	929.00
267.14	942.00
267.40	891.00
267.67	886.00
267.94	916.00
268.20	915.00
268.47	904.00
268.74	898.00
269.00	922.00
269.27	917.00
269.54	866.00
269.80	890.00
270.07	932.00
270.33	917.00
270.60	895.00
270.87	912.00
271.13	907.00
271.40	937.00
271.67	848.00
271.93	858.00
272.20	921.00
272.47	896.00
272.73	858.00
273.00	910.00
273.27	911.00
273.53	954.00
273.80	889.00
274.07	881.00
274.33	904.00
274.60	936.00
274.86	893.00
275.13	906.00
275.40	917.00
275.66	940.00
275.93	888.00
276.20	865.00
276.46	892.00
276.73	898.00
277.00	891.00
277.26	907.00
277.53	920.00
277.79	903.00
278.06	889.00
278.33	944.00
278.59	936.00
278.86	892.00
279.13	881.00
279.39	890.00
279.66	931.00
279.93	950.00
280.19	897.00
280.46	911.00
280.72	895.00
280.99	926.00
281.26	900.00
281.52	904.00
281.79	924.00
282.05	923.00
282.32	912.00
282.59	928.00
282.85	943.00
283.12	930.00
283.39	893.00
283.65	911.00
283.92	915.00
284.18	940.00
284.45	919.00
284.72	921.00
284.98	889.00
285.25	882.00
285.51	932.00
285.78	929.00
286.05	906.00
286.31	915.00
286.58	869.00
286.84	881.00
287.11	905.00
287.38	918.00
287.64	913.00
287.91	911.00
288.17	920.00
288.44	917.00
288.71	858.00
288.97	884.00
289.24	936.00
289.50	916.00
289.77	911.00
290.04	879.00
290.30	889.00
290.57	929.00
290.83	873.00
291.10	898.00
291.37	911.00
291.63	912.00
291.90	933.00
292.16	925.00
292.43	934.00
292.70	917.00
292.96	875.00
293.23	899.00
293.49	889.00
293.76	924.00
294.02	893.00
294.29	927.00
294.56	932.00
294.82	928.00
295.09	906.00
295.35	893.00
295.62	926.00
295.89	934.00
296.15	871.00
296.42	876.00
296.68	909.00
296.95	912.00
297.21	905.00
297.48	907.00
297.75	924.00
298.01	936.00
298.28	875.00
298.54	898.00
298.81	922.00
299.07	926.00
299.34	859.00
299.61	879.00
299.87	931.00
300.14	918.00
300.40	896.00
300.67	899.00
300.93	921.00
301.20	958.00
301.46	894.00
301.73	888.00
302.00	925.00
302.26	910.00
302.53	902.00
302.79	906.00
303.06	928.00
303.32	946.00
303.59	872.00
303.85	870.00
304.12	898.00
304.39	909.00
304.65	880.00
304.92	888.00
305.18	911.00
305.45	924.00
305.71	888.00
305.98	916.00
306.24	921.00
306.51	909.00
306.77	878.00
307.04	901.00
307.31	938.00
307.57	923.00
307.84	862.00
308.10	882.00
308.37	876.00
308.63	892.00
308.90	879.00
309.16	894.00
309.43	925.00
309.69	908.00
309.96	908.00
310.22	902.00
310.49	937.00
310.76	927.00
311.02	875.00
311.29	893.00
311.55	900.00
311.82	909.00
312.08	915.00
312.35	907.00
312.61	914.00
312.88	912.00
313.14	879.00
313.41	866.00
313.67	875.00
313.94	913.00
314.20	919.00
314.47	927.00
314.73	913.00
315.00	892.00
315.26	870.00
315.53	913.00
315.79	930.00
316.06	935.00
316.32	907.00
316.59	919.00
316.85	913.00
317.12	935.00
317.39	877.00
317.65	887.00
317.92	899.00
318.18	905.00
318.45	883.00
318.71	945.00
318.98	951.00
319.24	922.00
319.51	892.00
319.77	887.00
320.04	896.00
320.30	919.00
320.57	882.00
320.83	882.00
321.10	880.00
321.36	889.00
321.63	875.00
321.89	892.00
322.16	939.00
322.42	944.00
322.69	879.00
322.95	902.00
323.22	931.00
323.48	924.00
323.75	888.00
324.01	900.00
324.28	917.00
324.54	921.00
324.80	891.00
325.07	920.00
325.33	928.00
325.60	913.00
325.86	874.00
326.13	885.00
326.39	909.00
326.66	898.00
326.92	846.00
327.19	914.00
327.45	943.00
327.72	946.00
327.98	888.00
328.25	874.00
328.51	899.00
328.78	920.00
329.04	889.00
329.31	898.00
329.57	901.00
329.84	905.00
330.10	876.00
330.37	900.00
330.63	945.00
330.89	965.00
331.16	885.00
331.42	894.00
331.69	934.00
331.95	900.00
332.22	904.00
332.48	935.00
332.75	917.00
333.01	892.00
333.28	892.00
333.54	900.00
333.81	921.00
334.07	925.00
334.34	898.00
334.60	924.00
334.86	961.00
335.13	952.00
335.39	903.00
335.66	890.00
335.92	912.00
336.19	931.00
336.45	841.00
336.72	866.00
336.98	874.00
337.24	919.00
337.51	883.00
337.77	892.00
338.04	900.00
338.30	915.00
338.57	874.00
338.83	898.00
339.10	936.00
339.36	921.00
339.63	900.00
339.89	862.00
340.15	901.00
340.42	930.00
340.68	905.00
340.95	897.00
341.21	893.00
341.48	902.00
341.74	862.00
342.00	854.00
342.27	909.00
342.53	912.00
342.80	874.00
343.06	885.00
343.33	906.00
343.59	933.00
343.85	899.00
344.12	904.00
344.38	965.00
344.65	939.00
344.91	883.00
345.18	890.00
345.44	898.00
345.70	893.00
345.97	849.00
346.23	884.00
346.50	926.00
346.76	918.00
347.03	913.00
347.29	910.00
347.55	931.00
347.82	910.00
348.08	867.00
348.35	877.00
348.61	968.00
348.87	938.00
349.14	868.00
349.40	872.00
349.67	919.00
349.93	897.00
350.20	892.00
350.46	907.00
350.72	918.00
350.99	906.00
351.25	889.00
351.52	894.00
351.78	902.00
352.04	922.00
352.31	896.00
352.57	874.00
352.84	877.00
353.10	903.00
353.36	914.00
353.63	876.00
353.89	897.00
354.16	921.00
354.42	900.00
354.68	905.00
354.95	946.00
355.21	945.00
355.48	883.00
355.74	917.00
356.00	939.00
356.27	963.00
356.53	893.00
356.80	898.00
357.06	932.00
357.32	924.00
357.59	920.00
357.85	938.00
358.11	959.00
358.38	928.00
358.64	892.00
358.91	890.00
359.17	926.00
359.43	937.00
359.70	925.00
359.96	914.00
360.22	917.00
360.49	885.00
360.75	894.00
361.02	870.00
361.28	883.00
361.54	919.00
361.81	867.00
362.07	878.00
362.33	894.00
362.60	897.00
362.86	878.00
363.13	903.00
363.39	930.00
363.65	934.00
363.92	857.00
364.18	862.00
364.44	905.00
364.71	927.00
364.97	894.00
365.24	881.00
365.50	931.00
365.76	922.00
366.03	888.00
366.29	914.00
366.55	932.00
366.82	901.00
367.08	855.00
367.34	894.00
367.61	920.00
367.87	940.00
368.13	916.00
368.40	893.00
368.66	951.00
368.93	921.00
369.19	854.00
369.45	890.00
369.72	921.00
369.98	906.00
370.24	886.00
370.51	890.00
370.77	916.00
371.03	919.00
371.30	901.00
371.56	925.00
371.82	934.00
372.09	926.00
372.35	892.00
372.61	894.00
372.88	917.00
373.14	931.00
373.40	895.00
373.67	878.00
373.93	898.00
374.19	933.00
374.46	881.00
374.72	881.00
374.98	927.00
375.25	941.00
375.51	922.00
375.77	910.00
376.04	925.00
376.30	931.00
376.56	869.00
376.83	890.00
377.09	927.00
377.35	914.00
377.62	896.00
377.88	885.00
378.14	885.00
378.41	926.00
378.67	904.00
378.93	879.00
379.20	915.00
379.46	914.00
379.72	876.00
379.99	881.00
380.25	892.00
380.51	878.00
380.77	867.00
381.04	907.00
381.30	918.00
381.56	947.00
381.83	901.00
382.09	895.00
382.35	908.00
382.62	941.00
382.88	900.00
383.14	889.00
383.41	891.00
383.67	902.00
383.93	926.00
384.20	900.00
384.46	904.00
384.72	917.00
384.98	869.00
385.25	912.00
385.51	928.00
385.77	907.00
386.04	881.00
386.30	873.00
386.56	921.00
386.82	954.00
387.09	893.00
387.35	925.00
387.61	967.00
387.88	923.00
388.14	877.00
388.40	904.00
388.67	901.00
388.93	909.00
389.19	893.00
389.45	902.00
389.72	911.00
389.98	931.00
390.24	912.00
390.51	887.00
390.77	923.00
391.03	935.00
391.29	886.00
391.56	895.00
391.82	929.00
392.08	946.00
392.35	895.00
392.61	892.00
392.87	928.00
393.13	945.00
393.40	892.00
393.66	873.00
393.92	900.00
394.18	918.00
394.45	869.00
394.71	883.00
394.97	920.00
395.24	902.00
395.50	881.00
395.76	909.00
396.02	919.00
396.29	903.00
396.55	861.00
396.81	840.00
397.07	892.00
397.34	880.00
397.60	850.00
397.86	856.00
398.12	880.00
398.39	937.00
398.65	882.00
398.91	876.00
399.17	898.00
399.44	868.00
399.70	833.00
399.96	857.00
400.22	892.00
400.49	930.00
400.75	891.00
401.01	896.00
401.27	898.00
401.54	921.00
401.80	877.00
402.06	884.00
402.32	915.00
402.59	919.00
402.85	880.00
403.11	883.00
403.37	887.00
403.64	928.00
403.90	876.00
404.16	889.00
404.42	903.00
404.69	873.00
404.95	883.00
405.21	863.00
405.47	901.00
405.74	922.00
406.00	881.00
406.26	889.00
406.52	903.00
406.79	920.00
407.05	869.00
407.31	906.00
407.57	910.00
407.83	918.00
408.10	846.00
408.36	878.00
408.62	902.00
408.88	906.00
409.15	869.00
409.41	836.00
409.67	877.00
409.93	941.00
410.20	912.00
410.46	894.00
410.72	904.00
410.98	917.00
411.24	894.00
411.51	897.00
411.77	888.00
412.03	897.00
412.29	895.00
412.55	920.00
412.82	898.00
413.08	914.00
413.34	895.00
413.60	894.00
413.87	914.00
414.13	923.00
414.39	857.00
414.65	892.00
414.91	905.00
415.18	883.00
415.44	859.00
415.70	881.00
415.96	884.00
416.22	913.00
416.49	876.00
416.75	883.00
417.01	905.00
417.27	904.00
417.53	893.00
417.80	905.00
418.06	925.00
418.32	921.00
418.58	882.00
418.84	876.00
419.11	917.00
419.37	937.00
419.63	889.00
419.89	886.00
420.15	913.00
420.42	890.00
420.68	875.00
420.94	905.00
421.20	906.00
421.46	922.00
421.72	903.00
421.99	893.00
422.25	904.00
422.51	913.00
422.77	890.00
423.03	904.00
423.30	914.00
423.56	933.00
423.82	915.00
424.08	907.00
424.34	920.00
424.60	918.00
424.87	885.00
425.13	871.00
425.39	890.00
425.65	898.00
425.91	880.00
426.18	900.00
426.44	903.00
426.70	896.00
426.96	836.00
427.22	862.00
427.48	886.00
427.75	900.00
428.01	852.00
428.27	869.00
428.53	915.00
428.79	902.00
429.05	881.00
429.32	892.00
429.58	956.00
429.84	909.00
430.10	904.00
430.36	887.00
430.62	916.00
430.88	912.00
431.15	884.00
431.41	901.00
431.67	900.00
431.93	889.00
432.19	855.00
432.45	885.00
432.72	903.00
432.98	909.00
433.24	923.00
433.50	988.00
433.76	896.00
434.02	876.00
434.28	868.00
434.55	890.00
434.81	922.00
435.07	917.00
435.33	861.00
435.59	875.00
435.85	901.00
436.11	915.00
436.38	862.00
436.64	867.00
436.90	892.00
437.16	886.00
437.42	871.00
437.68	892.00
437.94	919.00
438.21	912.00
438.47	901.00
438.73	908.00
438.99	917.00
439.25	917.00
439.51	885.00
439.77	904.00
440.03	891.00
440.30	911.00
440.56	902.00
440.82	930.00
441.08	932.00
441.34	909.00
441.60	863.00
441.86	893.00
442.12	913.00
442.39	920.00
442.65	865.00
442.91	869.00
443.17	902.00
443.43	918.00
443.69	894.00
443.95	871.00
444.21	899.00
444.47	925.00
444.74	861.00
445.00	887.00
445.26	909.00
445.52	909.00
445.78	871.00
446.04	877.00
446.30	925.00
446.56	926.00
446.82	868.00
447.09	884.00
447.35	924.00
447.61	921.00
447.87	900.00
448.13	887.00
448.39	927.00
448.65	899.00
448.91	857.00
449.17	867.00
449.43	894.00
449.70	910.00
449.96	863.00
450.22	868.00
450.48	917.00
450.74	941.00
451.00	871.00
451.26	881.00
451.52	917.00
451.78	890.00
452.04	861.00
452.31	922.00
452.57	924.00
452.83	886.00
453.09	868.00
453.35	888.00
453.61	897.00
453.87	890.00
454.13	893.00
454.39	908.00
454.65	964.00
454.91	958.00
455.17	877.00
455.44	885.00
455.70	910.00
455.96	919.00
456.22	873.00
456.48	879.00
456.74	907.00
457.00	871.00
457.26	827.00
457.52	878.00
457.78	890.00
458.04	892.00
458.30	859.00
458.56	868.00
458.82	880.00
459.09	885.00
459.35	840.00
459.61	858.00
459.87	910.00
460.13	932.00
460.39	886.00
460.65	853.00
460.91	916.00
461.17	881.00
461.43	843.00
461.69	867.00
461.95	891.00
462.21	892.00
462.47	896.00
462.73	905.00
462.99	927.00
463.26	906.00
463.52	869.00
463.78	866.00
464.04	892.00
464.30	903.00
464.56	854.00
464.82	863.00
465.08	940.00
465.34	957.00
465.60	907.00
465.86	880.00
466.12	903.00
466.38	875.00
466.64	860.00
466.90	889.00
467.16	902.00
467.42	915.00
467.68	856.00
467.94	881.00
468.20	939.00
468.46	915.00
468.72	883.00
468.98	900.00
469.25	913.00
469.51	894.00
469.77	906.00
470.03	894.00
470.29	898.00
470.55	913.00
470.81	880.00
471.07	892.00
471.33	908.00
471.59	921.00
471.85	883.00
472.11	880.00
472.37	937.00
472.63	915.00
472.89	916.00
473.15	893.00
473.41	909.00
473.67	908.00
473.93	864.00
474.19	867.00
474.45	886.00
474.71	908.00
474.97	876.00
475.23	871.00
475.49	892.00
475.75	886.00
476.01	873.00
476.27	907.00
476.53	922.00
476.79	917.00
477.05	892.00
477.31	873.00
477.57	904.00
477.83	913.00
478.09	846.00
478.35	899.00
478.61	939.00
478.87	910.00
479.13	857.00
479.39	907.00
479.65	938.00
479.91	907.00
480.17	889.00
480.43	897.00
480.69	869.00
480.95	902.00
481.21	878.00
481.47	891.00
481.73	906.00
481.99	890.00
482.25	863.00
482.51	859.00
482.77	909.00
483.03	899.00
483.29	888.00
483.55	887.00
483.81	916.00
484.07	909.00
484.33	871.00
484.59	865.00
484.85	916.00
485.11	922.00
485.37	871.00
485.63	863.00
485.89	873.00
486.15	891.00
486.41	876.00
486.67	894.00
486.93	903.00
487.19	884.00
487.45	871.00
487.71	884.00
487.97	924.00
488.23	912.00
488.49	858.00
488.75	860.00
489.01	901.00
489.27	927.00
489.53	875.00
489.79	863.00
490.05	874.00
490.31	909.00
490.57	884.00
490.83	937.00
491.08	890.00
491.34	879.00
491.60	870.00
491.86	906.00
492.12	955.00
492.38	915.00
492.64	842.00
492.90	857.00
493.16	908.00
493.42	868.00
493.68	857.00
493.94	889.00
494.20	872.00
494.46	895.00
494.72	868.00
494.98	875.00
495.24	906.00
495.50	891.00
495.76	889.00
496.02	898.00
496.28	905.00
496.54	918.00
496.80	901.00
497.05	861.00
497.31	913.00
497.57	901.00
497.83	877.00
498.09	902.00
498.35	936.00
498.61	906.00
498.87	871.00
499.13	874.00
499.39	903.00
499.65	892.00
499.91	888.00
500.17	865.00
500.43	945.00
500.69	980.00
500.95	886.00
501.20	910.00
501.46	931.00
501.72	927.00
501.98	904.00
502.24	892.00
502.50	916.00
502.76	900.00
503.02	897.00
503.28	900.00
503.54	942.00
503.80	938.00
504.06	900.00
504.32	917.00
504.58	910.00
504.83	891.00
505.09	869.00
505.35	894.00
505.61	881.00
505.87	906.00
506.13	879.00
506.39	885.00
506.65	928.00
506.91	951.00
507.17	899.00
507.43	889.00
507.68	895.00
507.94	915.00
508.20	868.00
508.46	864.00
508.72	919.00
508.98	923.00
509.24	860.00
509.50	909.00
509.76	892.00
510.02	897.00
510.28	865.00
510.53	885.00
510.79	903.00
511.05	890.00
511.31	862.00
511.57	874.00
511.83	905.00
512.09	905.00
512.35	878.00
512.61	878.00
512.87	886.00
513.12	908.00
513.38	848.00
513.64	892.00
513.90	925.00
514.16	930.00
514.42	883.00
514.68	883.00
514.94	917.00
515.20	906.00
515.45	854.00
515.71	874.00
515.97	907.00
516.23	902.00
516.49	868.00
516.75	880.00
517.01	886.00
517.27	879.00
517.53	848.00
517.78	877.00
518.04	909.00
518.30	875.00
518.56	854.00
518.82	896.00
519.08	941.00
519.34	879.00
519.60	857.00
519.85	882.00
520.11	897.00
520.37	898.00
520.63	870.00
520.89	905.00
521.15	905.00
521.41	892.00
521.66	877.00
521.92	884.00
522.18	901.00
522.44	931.00
522.70	895.00
522.96	870.00
523.22	897.00
523.48	892.00
523.73	878.00
523.99	882.00
524.25	948.00
524.51	924.00
524.77	859.00
525.03	860.00
525.29	909.00
525.54	898.00
525.80	862.00
526.06	865.00
526.32	887.00
526.58	900.00
526.84	879.00
527.09	863.00
527.35	887.00
527.61	877.00
527.87	876.00
528.13	891.00
528.39	883.00
528.65	884.00
528.90	852.00
529.16	860.00
529.42	880.00
529.68	892.00
529.94	865.00
530.20	887.00
530.45	876.00
530.71	900.00
530.97	871.00
531.23	890.00
531.49	914.00
531.75	897.00
532.00	857.00
532.26	867.00
532.52	912.00
532.78	884.00
533.04	860.00
533.30	870.00
533.55	898.00
533.81	901.00
534.07	861.00
534.33	876.00
534.59	913.00
534.85	911.00
535.10	867.00
535.36	866.00
535.62	916.00
535.88	901.00
536.14	863.00
536.39	858.00
536.65	920.00
536.91	922.00
537.17	864.00
537.43	875.00
537.69	937.00
537.94	918.00
538.20	864.00
538.46	877.00
538.72	897.00
538.98	898.00
539.23	867.00
539.49	845.00
539.75	907.00
540.01	891.00
540.27	871.00
540.52	915.00
540.78	898.00
541.04	906.00
541.30	860.00
541.56	846.00
541.81	924.00
542.07	965.00
542.33	876.00
542.59	895.00
542.85	888.00
543.10	900.00
543.36	864.00
543.62	898.00
543.88	902.00
544.14	900.00
544.39	871.00
544.65	881.00
544.91	915.00
545.17	897.00
545.43	863.00
545.68	874.00
545.94	913.00
546.20	916.00
546.46	875.00
546.71	871.00
546.97	912.00
547.23	929.00
547.49	879.00
547.75	875.00
548.00	906.00
548.26	934.00
548.52	857.00
548.78	867.00
549.03	883.00
549.29	891.00
549.55	863.00
549.81	894.00
550.07	906.00
550.32	909.00
550.58	853.00
550.84	896.00
551.10	894.00
551.35	881.00
551.61	860.00
551.87	894.00
552.13	905.00
552.39	887.00
552.64	847.00
552.90	882.00
553.16	903.00
553.42	893.00
553.67	857.00
553.93	869.00
554.19	921.00
554.45	935.00
554.70	878.00
554.96	864.00
555.22	869.00
555.48	913.00
555.73	877.00
555.99	865.00
556.25	906.00
556.51	881.00
556.76	875.00
557.02	888.00
557.28	909.00
557.54	881.00
557.79	871.00
558.05	896.00
558.31	892.00
558.57	926.00
558.82	864.00
559.08	852.00
559.34	852.00
559.60	902.00
559.85	874.00
560.11	885.00
560.37	887.00
560.63	883.00
560.88	865.00
561.14	871.00
561.40	918.00
561.66	874.00
561.91	860.00
562.17	869.00
562.43	907.00
562.68	930.00
562.94	895.00
563.20	892.00
563.46	910.00
563.71	900.00
563.97	863.00
564.23	891.00
564.49	906.00
564.74	891.00
565.00	869.00
565.26	877.00
565.51	897.00
565.77	892.00
566.03	858.00
566.29	876.00
566.54	889.00
566.80	884.00
567.06	881.00
567.31	885.00
567.57	912.00
567.83	893.00
568.09	900.00
568.34	887.00
568.60	870.00
568.86	916.00
569.11	885.00
569.37	876.00
569.63	907.00
569.89	915.00
570.14	846.00
570.40	864.00
570.66	885.00
570.91	898.00
571.17	868.00
571.43	889.00
571.69	926.00
571.94	919.00
572.20	859.00
572.46	884.00
572.71	919.00
572.97	888.00
573.23	859.00
573.48	867.00
573.74	884.00
574.00	923.00
574.26	863.00
574.51	873.00
574.77	915.00
575.03	893.00
575.28	880.00
575.54	853.00
575.80	881.00
576.05	902.00
576.31	862.00
576.57	856.00
576.82	896.00
577.08	896.00
577.34	863.00
577.59	889.00
577.85	924.00
578.11	884.00
578.37	861.00
578.62	862.00
578.88	910.00
579.14	931.00
579.39	890.00
579.65	901.00
579.91	901.00
580.16	896.00
580.42	869.00
580.68	886.00
580.93	911.00
581.19	878.00
581.45	853.00
581.70	886.00
581.96	902.00
582.22	922.00
582.47	877.00
582.73	887.00
582.99	915.00
583.24	917.00
583.50	858.00
583.76	876.00
584.01	890.00
584.27	908.00
584.53	880.00
584.78	896.00
585.04	882.00
585.30	901.00
585.55	869.00
585.81	856.00
586.07	901.00
586.32	926.00
586.58	896.00
586.83	883.00
587.09	886.00
587.35	905.00
587.60	856.00
587.86	861.00
588.12	889.00
588.37	908.00
588.63	865.00
588.89	885.00
589.14	895.00
589.40	899.00
589.66	868.00
589.91	892.00
590.17	904.00
590.43	854.00
590.68	859.00
590.94	883.00
591.19	908.00
591.45	905.00
591.71	862.00
591.96	884.00
592.22	894.00
592.48	922.00
592.73	873.00
592.99	862.00
593.25	890.00
593.50	907.00
593.76	868.00
594.01	872.00
594.27	897.00
594.53	887.00
594.78	876.00
595.04	886.00
595.30	901.00
595.55	910.00
595.81	855.00
596.06	903.00
596.32	942.00
596.58	935.00
596.83	890.00
597.09	905.00
597.35	911.00
597.60	896.00
597.86	868.00
598.11	891.00
598.37	907.00
598.63	907.00
598.88	882.00
599.14	880.00
599.39	934.00
599.65	907.00
599.91	852.00
600.16	878.00
600.42	906.00
600.67	941.00
600.93	881.00
601.19	892.00
601.44	933.00
601.70	915.00
601.95	868.00
602.21	898.00
602.47	913.00
602.72	915.00
602.98	872.00
603.23	887.00
603.49	907.00
603.75	914.00
604.00	872.00
604.26	876.00
604.51	900.00
604.77	921.00
605.03	856.00
605.28	874.00
605.54	941.00
605.79	940.00
606.05	858.00
606.31	872.00
606.56	900.00
606.82	931.00
607.07	890.00
607.33	897.00
607.59	926.00
607.84	907.00
608.10	869.00
608.35	899.00
608.61	918.00
608.86	919.00
609.12	914.00
609.38	928.00
609.63	956.00
609.89	922.00
610.14	853.00
610.40	882.00
610.65	911.00
610.91	910.00
611.17	886.00
611.42	886.00
611.68	929.00
611.93	935.00
612.19	917.00
612.44	933.00
612.70	925.00
612.96	895.00
613.21	877.00
613.47	887.00
613.72	903.00
613.98	933.00
614.23	907.00
614.49	925.00
614.75	923.00
615.00	921.00
615.26	908.00
615.51	880.00
615.77	904.00
616.02	932.00
616.28	902.00
616.53	926.00
616.79	937.00
617.05	913.00
617.30	886.00
617.56	909.00
617.81	937.00
618.07	930.00
618.32	901.00
618.58	928.00
618.83	963.00
619.09	966.00
619.34	915.00
619.60	905.00
619.86	952.00
620.11	978.00
620.37	924.00
620.62	940.00
620.88	950.00
621.13	938.00
621.39	931.00
621.64	960.00
621.90	979.00
622.15	938.00
622.41	928.00
622.66	971.00
622.92	990.00
623.18	993.00
623.43	935.00
623.69	954.00
623.94	1014.00
624.20	1028.00
624.45	1016.00
624.71	1026.00
624.96	990.00
625.22	1008.00
625.47	983.00
625.73	1004.00
625.98	1025.00
626.24	1021.00
626.49	995.00
626.75	1033.00
627.00	1048.00
627.26	1039.00
627.51	1020.00
627.77	1066.00
628.02	1067.00
628.28	1084.00
628.53	1042.00
628.79	1086.00
629.05	1089.00
629.30	1064.00
629.56	1059.00
629.81	1083.00
630.07	1090.00
630.32	1091.00
630.58	1102.00
630.83	1114.00
631.09	1134.00
631.34	1131.00
631.60	1102.00
631.85	1114.00
632.11	1162.00
632.36	1176.00
632.62	1139.00
632.87	1174.00
633.13	1192.00
633.38	1184.00
633.64	1135.00
633.89	1120.00
634.15	1165.00
634.40	1218.00
634.66	1145.00
634.91	1167.00
635.17	1234.00
635.42	1282.00
635.68	1305.00
635.93	1284.00
636.18	1282.00
636.44	1302.00
636.69	1261.00
636.95	1246.00
637.20	1289.00
637.46	1300.00
637.71	1280.00
637.97	1235.00
638.22	1267.00
638.48	1276.00
638.73	1254.00
638.99	1239.00
639.24	1274.00
639.50	1280.00
639.75	1243.00
640.01	1269.00
640.26	1297.00
640.52	1312.00
640.77	1272.00
641.03	1292.00
641.28	1319.00
641.54	1285.00
641.79	1225.00
642.04	1302.00
642.30	1297.00
642.55	1259.00
642.81	1265.00
643.06	1297.00
643.32	1328.00
643.57	1307.00
643.83	1248.00
644.08	1224.00
644.34	1261.00
644.59	1291.00
644.85	1241.00
645.10	1204.00
645.35	1187.00
645.61	1149.00
645.86	1106.00
646.12	1132.00
646.37	1179.00
646.63	1180.00
646.88	1106.00
647.14	1111.00
647.39	1133.00
647.65	1162.00
647.90	1062.00
648.15	1071.00
648.41	1076.00
648.66	1072.00
648.92	1018.00
649.17	1027.00
649.43	1034.00
649.68	1027.00
649.94	1008.00
650.19	1007.00
650.44	1010.00
650.70	998.00
650.95	964.00
651.21	985.00
651.46	1036.00
651.72	1024.00
651.97	981.00
652.23	960.00
652.48	961.00
652.73	965.00
652.99	938.00
653.24	951.00
653.50	966.00
653.75	961.00
654.01	942.00
654.26	934.00
654.51	946.00
654.77	960.00
655.02	951.00
655.28	909.00
655.53	931.00
655.79	958.00
656.04	936.00
656.29	929.00
656.55	920.00
656.80	947.00
657.06	903.00
657.31	896.00
657.56	904.00
657.82	894.00
658.07	896.00
658.33	907.00
658.58	924.00
658.84	941.00
659.09	913.00
659.34	918.00
659.60	928.00
659.85	909.00
660.11	888.00
660.36	903.00
660.61	922.00
660.87	885.00
661.12	868.00
661.38	875.00
661.63	903.00
661.88	916.00
662.14	903.00
662.39	891.00
662.65	929.00
662.90	951.00
663.15	864.00
663.41	893.00
663.66	937.00
663.92	944.00
664.17	873.00
664.42	906.00
664.68	912.00
664.93	905.00
665.19	865.00
665.44	877.00
665.69	868.00
665.95	900.00
666.20	868.00
666.45	916.00
666.71	904.00
666.96	900.00
667.22	852.00
667.47	886.00
667.72	891.00
667.98	895.00
668.23	860.00
668.49	904.00
668.74	924.00
668.99	917.00
669.25	874.00
669.50	863.00
669.75	892.00
670.01	884.00
670.26	844.00
670.52	875.00
670.77	918.00
671.02	890.00
671.28	857.00
671.53	879.00
671.78	914.00
672.04	909.00
672.29	873.00
672.54	878.00
672.80	876.00
673.05	893.00
673.31	859.00
673.56	900.00
673.81	929.00
674.07	916.00
674.32	885.00
674.57	881.00
674.83	882.00
675.08	905.00
675.33	885.00
675.59	901.00
675.84	921.00
676.09	901.00
676.35	886.00
676.60	887.00
676.86	882.00
677.11	925.00
677.36	867.00
677.62	883.00
677.87	922.00
678.12	935.00
678.38	857.00
678.63	884.00
678.88	920.00
679.14	916.00
679.39	862.00
679.64	898.00
679.90	881.00
680.15	906.00
680.40	905.00
680.66	888.00
680.91	895.00
681.16	895.00
681.42	865.00
681.67	873.00
681.92	880.00
682.18	922.00
682.43	873.00
682.68	866.00
682.94	879.00
683.19	850.00
683.44	853.00
683.70	888.00
683.95	901.00
684.20	887.00
684.46	877.00
684.71	878.00
684.96	884.00
685.22	890.00
685.47	870.00
685.72	892.00
685.98	911.00
686.23	857.00
686.48	841.00
686.74	897.00
686.99	934.00
687.24	911.00
687.50	862.00
687.75	866.00
688.00	880.00
688.25	899.00
688.51	888.00
688.76	890.00
689.01	874.00
689.27	881.00
689.52	833.00
689.77	873.00
690.03	886.00
690.28	880.00
690.53	872.00
690.79	876.00
691.04	901.00
691.29	902.00
691.54	857.00
691.80	877.00
692.05	901.00
692.30	897.00
692.56	856.00
692.81	881.00
693.06	881.00
693.32	861.00
693.57	847.00
693.82	893.00
694.07	914.00
694.33	896.00
694.58	855.00
694.83	908.00
695.09	897.00
695.34	912.00
695.59	870.00
695.84	868.00
696.10	904.00
696.35	911.00
696.60	853.00
696.86	856.00
697.11	892.00
697.36	896.00
697.61	852.00
697.87	876.00
698.12	864.00
698.37	886.00
698.63	891.00
698.88	866.00
699.13	901.00
699.38	899.00
699.64	852.00
699.89	881.00
700.14	885.00
700.39	893.00
700.65	865.00
700.90	874.00
701.15	884.00
701.40	899.00
701.66	869.00
701.91	879.00
702.16	880.00
702.42	896.00
702.67	854.00
702.92	843.00
703.17	885.00
703.43	894.00
703.68	882.00
703.93	907.00
704.18	931.00
704.44	894.00
704.69	862.00
704.94	895.00
705.19	878.00
705.45	917.00
705.70	894.00
705.95	870.00
706.20	882.00
706.46	897.00
706.71	885.00
706.96	878.00
707.21	903.00
707.47	888.00
707.72	879.00
707.97	891.00
708.22	909.00
708.48	937.00
708.73	869.00
708.98	862.00
709.23	894.00
709.49	887.00
709.74	858.00
709.99	885.00
710.24	882.00
710.50	876.00
710.75	887.00
711.00	906.00
711.25	909.00
711.50	884.00
711.76	842.00
712.01	864.00
712.26	869.00
712.51	886.00
712.77	848.00
713.02	877.00
713.27	863.00
713.52	870.00
713.78	880.00
714.03	877.00
714.28	872.00
714.53	896.00
714.78	873.00
715.04	909.00
715.29	891.00
715.54	883.00
715.79	854.00
716.05	879.00
716.30	899.00
716.55	912.00
716.80	882.00
717.05	902.00
717.31	909.00
717.56	901.00
717.81	866.00
718.06	868.00
718.31	872.00
718.57	905.00
718.82	873.00
719.07	916.00
719.32	877.00
719.57	902.00
719.83	873.00
720.08	887.00
720.33	874.00
720.58	858.00
720.83	832.00
721.09	902.00
721.34	905.00
721.59	909.00
721.84	866.00
722.09	883.00
722.35	888.00
722.60	888.00
722.85	853.00
723.10	894.00
723.35	868.00
723.61	913.00
723.86	895.00
724.11	901.00
724.36	883.00
724.61	891.00
724.87	874.00
725.12	865.00
725.37	868.00
725.62	875.00
725.87	855.00
726.12	862.00
726.38	865.00
726.63	885.00
726.88	872.00
727.13	885.00
727.38	874.00
727.64	886.00
727.89	869.00
728.14	848.00
728.39	853.00
728.64	882.00
728.89	852.00
729.15	879.00
729.40	907.00
729.65	907.00
729.90	841.00
730.15	872.00
730.40	913.00
730.66	914.00
730.91	858.00
731.16	875.00
731.41	890.00
731.66	900.00
731.91	872.00
732.17	908.00
732.42	908.00
732.67	888.00
732.92	851.00
733.17	882.00
733.42	901.00
733.68	894.00
733.93	851.00
734.18	858.00
734.43	864.00
734.68	860.00
734.93	853.00
735.18	879.00
735.44	908.00
735.69	905.00
735.94	854.00
736.19	875.00
736.44	866.00
736.69	929.00
736.95	846.00
737.20	884.00
737.45	898.00
737.70	902.00
737.95	892.00
738.20	909.00
738.45	895.00
738.70	888.00
738.96	890.00
739.21	900.00
739.46	918.00
739.71	909.00
739.96	866.00
740.21	899.00
740.46	960.00
740.72	948.00
740.97	861.00
741.22	888.00
741.47	872.00
741.72	909.00
741.97	846.00
742.22	865.00
742.47	894.00
742.73	901.00
742.98	858.00
743.23	850.00
743.48	857.00
743.73	875.00
743.98	870.00
744.23	875.00
744.48	894.00
744.74	874.00
744.99	856.00
745.24	892.00
745.49	884.00
745.74	917.00
745.99	863.00
746.24	887.00
746.49	867.00
746.74	872.00
747.00	871.00
747.25	877.00
747.50	874.00
747.75	880.00
748.00	837.00
748.25	867.00
748.50	884.00
748.75	893.00
749.00	889.00
749.26	922.00
749.51	897.00
749.76	910.00
750.01	864.00
750.26	893.00
750.51	927.00
750.76	898.00
751.01	854.00
751.26	878.00
751.51	900.00
751.77	911.00
752.02	878.00
752.27	860.00
752.52	869.00
752.77	901.00
753.02	869.00
753.27	896.00
753.52	885.00
753.77	882.00
754.02	863.00
754.27	882.00
754.52	860.00
754.78	895.00
755.03	875.00
755.28	902.00
755.53	895.00
755.78	903.00
756.03	865.00
756.28	886.00
756.53	902.00
756.78	903.00
757.03	881.00
757.28	878.00
757.53	895.00
757.79	846.00
758.04	849.00
758.29	914.00
758.54	910.00
758.79	901.00
759.04	843.00
759.29	858.00
759.54	866.00
759.79	875.00
760.04	872.00
760.29	874.00
760.54	884.00
760.79	881.00
761.04	853.00
761.29	873.00
761.55	877.00
761.80	885.00
762.05	841.00
762.30	884.00
762.55	881.00
762.80	905.00
763.05	888.00
763.30	892.00
763.55	914.00
763.80	892.00
764.05	838.00
764.30	879.00
764.55	916.00
764.80	898.00
765.05	860.00
765.30	908.00
765.55	892.00
765.80	876.00
766.05	848.00
766.30	883.00
766.56	894.00
766.81	896.00
767.06	886.00
767.31	885.00
767.56	871.00
767.81	890.00
768.06	860.00
768.31	876.00
768.56	900.00
768.81	938.00
769.06	865.00
769.31	884.00
769.56	877.00
769.81	908.00
770.06	849.00
770.31	875.00
770.56	888.00
770.81	859.00
771.06	842.00
771.31	876.00
771.56	887.00
771.81	905.00
772.06	846.00
772.31	897.00
772.56	891.00
772.81	898.00
773.06	859.00
773.31	891.00
773.56	886.00
773.81	874.00
774.06	857.00
774.31	877.00
774.56	882.00
774.81	911.00
775.06	880.00
775.31	899.00
775.56	899.00
775.81	880.00
776.06	852.00
776.31	878.00
776.56	889.00
776.82	894.00
777.07	850.00
777.32	877.00
777.57	883.00
777.82	921.00
778.07	878.00
778.32	873.00
778.57	909.00
778.82	914.00
779.07	885.00
779.32	878.00
779.57	848.00
779.82	883.00
780.07	876.00
780.32	882.00
780.56	883.00
780.81	919.00
781.06	861.00
781.31	869.00
781.56	892.00
781.81	898.00
782.06	862.00
782.31	896.00
782.56	885.00
782.81	924.00
783.06	875.00
783.31	890.00
783.56	880.00
783.81	897.00
784.06	875.00
784.31	870.00
784.56	856.00
784.81	904.00
785.06	876.00
785.31	885.00
785.56	867.00
785.81	869.00
786.06	850.00
786.31	872.00
786.56	865.00
786.81	876.00
787.06	869.00
787.31	870.00
787.56	869.00
787.81	866.00
788.06	848.00
788.31	887.00
788.56	878.00
788.81	908.00
789.06	873.00
789.31	882.00
789.56	891.00
789.81	889.00
790.06	850.00
790.31	906.00
790.56	875.00
790.80	862.00
791.05	855.00
791.30	845.00
791.55	856.00
791.80	874.00
792.05	867.00
792.30	861.00
792.55	868.00
792.80	904.00
793.05	869.00
793.30	887.00
793.55	877.00
793.80	878.00
794.05	861.00
794.30	882.00
794.55	875.00
794.80	890.00
795.05	838.00
795.30	855.00
795.54	847.00
795.79	899.00
796.04	858.00
796.29	886.00
796.54	897.00
796.79	904.00
797.04	862.00
797.29	891.00
797.54	913.00
797.79	908.00
798.04	864.00
798.29	872.00
798.54	857.00
798.79	867.00
799.04	846.00
799.29	874.00
799.53	881.00
799.78	884.00
800.03	871.00
800.28	848.00
800.53	863.00
800.78	920.00
801.03	866.00
801.28	880.00
801.53	874.00
801.78	897.00
802.03	864.00
802.28	889.00
802.52	909.00
802.77	921.00
803.02	883.00
803.27	885.00
803.52	860.00
803.77	892.00
804.02	884.00
804.27	897.00
804.52	879.00
804.77	902.00
805.02	878.00
805.27	894.00
805.51	890.00
805.76	910.00
806.01	864.00
806.26	882.00
806.51	874.00
806.76	923.00
807.01	876.00
807.26	859.00
807.51	896.00
807.76	872.00
808.00	852.00
808.25	886.00
808.50	899.00
808.75	882.00
809.00	856.00
809.25	866.00
809.50	883.00
809.75	914.00
810.00	887.00
810.24	873.00
810.49	848.00
810.74	858.00
810.99	865.00
811.24	895.00
811.49	894.00
811.74	908.00
811.99	848.00
812.24	893.00
812.48	869.00
812.73	866.00
812.98	833.00
813.23	869.00
813.48	881.00
813.73	874.00
813.98	844.00
814.23	878.00
814.47	857.00
814.72	874.00
814.97	837.00
815.22	891.00
815.47	864.00
815.72	882.00
815.97	846.00
816.22	871.00
816.46	886.00
816.71	928.00
816.96	890.00
817.21	909.00
817.46	872.00
817.71	895.00
817.96	872.00
818.20	862.00
818.45	860.00
818.70	874.00
818.95	851.00
819.20	876.00
819.45	890.00
819.70	873.00
819.94	854.00
820.19	889.00
820.44	885.00
820.69	911.00
820.94	863.00
821.19	896.00
821.44	932.00
821.68	940.00
821.93	862.00
822.18	868.00
822.43	883.00
822.68	902.00
822.93	884.00
823.17	882.00
823.42	879.00
823.67	886.00
823.92	866.00
824.17	876.00
824.42	886.00
824.67	901.00
824.91	869.00
825.16	884.00
825.41	882.00
825.66	857.00
825.91	843.00
826.16	871.00
826.40	887.00
826.65	910.00
826.90	869.00
827.15	868.00
827.40	887.00
827.65	900.00
827.89	816.00
828.14	857.00
828.39	875.00
828.64	882.00
828.89	841.00
829.13	869.00
829.38	865.00
829.63	883.00
829.88	863.00
830.13	867.00
830.38	853.00
830.62	886.00
830.87	857.00
831.12	873.00
831.37	897.00
831.62	906.00
831.86	848.00
832.11	867.00
832.36	845.00
832.61	881.00
832.86	865.00
833.10	876.00
833.35	885.00
833.60	890.00
833.85	864.00
834.10	907.00
834.35	936.00
834.59	924.00
834.84	860.00
835.09	880.00
835.34	862.00
835.59	877.00
835.83	878.00
836.08	897.00
836.33	906.00
836.58	916.00
836.83	886.00
837.07	902.00
837.32	883.00
837.57	885.00
837.82	866.00
838.06	900.00
838.31	905.00
838.56	913.00
838.81	852.00
839.06	904.00
839.30	894.00
839.55	897.00
839.80	861.00
840.05	894.00
840.30	914.00
840.54	925.00
840.79	868.00
841.04	876.00
841.29	898.00
841.53	917.00
841.78	872.00
842.03	862.00
842.28	845.00
842.53	873.00
842.77	885.00
843.02	894.00
843.27	872.00
843.52	890.00
843.76	876.00
844.01	902.00
844.26	881.00
844.51	896.00
844.75	869.00
845.00	881.00
845.25	879.00
845.50	897.00
845.75	860.00
845.99	881.00
846.24	896.00
846.49	915.00
846.74	856.00
846.98	857.00
847.23	869.00
847.48	901.00
847.73	862.00
847.97	874.00
848.22	901.00
848.47	889.00
848.72	867.00
848.96	854.00
849.21	892.00
849.46	876.00
849.71	861.00
849.95	866.00
850.20	865.00
850.45	891.00
850.70	849.00
850.94	893.00
851.19	881.00
851.44	876.00
851.69	839.00
851.93	880.00
852.18	897.00
852.43	897.00
852.68	871.00
852.92	897.00
853.17	924.00
853.42	903.00
853.66	872.00
853.91	897.00
854.16	900.00
854.41	933.00
854.65	862.00
854.90	874.00
855.15	877.00
855.40	894.00
855.64	866.00
855.89	873.00
856.14	879.00
856.39	884.00
856.63	857.00
856.88	865.00
857.13	892.00
857.37	869.00
857.62	842.00
857.87	844.00
858.12	887.00
858.36	908.00
858.61	828.00
858.86	876.00
859.10	906.00
859.35	893.00
859.60	849.00
859.85	842.00
860.09	853.00
860.34	896.00
860.59	880.00
860.83	869.00
861.08	877.00
861.33	922.00
861.58	877.00
861.82	870.00
862.07	874.00
862.32	888.00
862.56	866.00
862.81	896.00
863.06	889.00
863.30	873.00
863.55	882.00
863.80	874.00
864.05	874.00
864.29	880.00
864.54	874.00
864.79	890.00
865.03	887.00
865.28	907.00
865.53	866.00
865.77	858.00
866.02	895.00
866.27	919.00
866.51	887.00
866.76	860.00
867.01	856.00
867.26	905.00
867.50	874.00
867.75	862.00
868.00	887.00
868.24	879.00
868.49	843.00
868.74	868.00
868.98	863.00
869.23	880.00
869.48	877.00
869.72	865.00
869.97	888.00
870.22	927.00
870.46	871.00
870.71	892.00
870.96	900.00
871.20	901.00
871.45	846.00
871.70	877.00
871.94	901.00
872.19	903.00
872.44	894.00
872.68	889.00
872.93	879.00
873.18	894.00
873.42	861.00
873.67	874.00
873.92	899.00
874.16	888.00
874.41	881.00
874.66	898.00
874.90	880.00
875.15	907.00
875.40	887.00
875.64	890.00
875.89	890.00
876.14	892.00
876.38	866.00
876.63	868.00
876.88	896.00
877.12	887.00
877.37	843.00
877.62	889.00
877.86	889.00
878.11	893.00
878.36	870.00
878.60	888.00
878.85	873.00
879.09	883.00
879.34	863.00
879.59	887.00
879.83	908.00
880.08	927.00
880.33	894.00
880.57	881.00
880.82	880.00
881.07	900.00
881.31	868.00
881.56	876.00
881.80	885.00
882.05	901.00
882.30	847.00
882.54	874.00
882.79	909.00
883.04	929.00
883.28	890.00
883.53	870.00
883.77	887.00
884.02	889.00
884.27	837.00
884.51	866.00
884.76	868.00
885.01	900.00
885.25	855.00
885.50	890.00
885.74	883.00
885.99	913.00
886.24	879.00
886.48	856.00
886.73	898.00
886.98	932.00
887.22	890.00
887.47	901.00
887.71	905.00
887.96	903.00
888.21	873.00
888.45	860.00
888.70	875.00
888.94	908.00
889.19	835.00
889.44	866.00
889.68	878.00
889.93	912.00
890.17	877.00
890.42	868.00
890.67	895.00
890.91	988.00
891.16	881.00
891.40	861.00
891.65	869.00
891.90	903.00
892.14	842.00
892.39	875.00
892.63	872.00
892.88	904.00
893.13	868.00
893.37	855.00
893.62	875.00
893.86	896.00
894.11	857.00
894.36	877.00
894.60	873.00
894.85	878.00
895.09	868.00
895.34	907.00
895.59	881.00
895.83	889.00
896.08	857.00
896.32	860.00
896.57	877.00
896.81	882.00
897.06	863.00
897.31	867.00
897.55	892.00
897.80	875.00
898.04	829.00
898.29	863.00
898.53	877.00
898.78	892.00
899.03	885.00
899.27	866.00
899.52	888.00
899.76	899.00
900.01	867.00
900.25	883.00
900.50	889.00
900.75	923.00
900.99	890.00
901.24	939.00
901.48	891.00
901.73	876.00
901.97	855.00
902.22	881.00
902.47	897.00
902.71	892.00
902.96	844.00
903.20	870.00
903.45	871.00
903.69	889.00
903.94	883.00
904.18	856.00
904.43	879.00
904.68	884.00
904.92	826.00
905.17	867.00
905.41	884.00
905.66	901.00
905.90	904.00
906.15	875.00
906.39	878.00
906.64	875.00
906.88	851.00
907.13	872.00
907.38	907.00
907.62	903.00
907.87	851.00
908.11	897.00
908.36	887.00
908.60	887.00
908.85	821.00
909.09	864.00
909.34	870.00
909.58	894.00
909.83	857.00
910.07	875.00
910.32	931.00
910.56	927.00
910.81	861.00
911.06	885.00
911.30	906.00
911.55	889.00
911.79	856.00
912.04	858.00
912.28	854.00
912.53	890.00
912.77	877.00
913.02	877.00
913.26	881.00
913.51	876.00
913.75	869.00
914.00	866.00
914.24	885.00
914.49	871.00
914.73	850.00
914.98	914.00
915.22	917.00
915.47	884.00
915.71	860.00
915.96	864.00
916.20	876.00
916.45	881.00
916.69	854.00
916.94	872.00
917.18	887.00
917.43	898.00
917.67	847.00
917.92	850.00
918.16	897.00
918.41	896.00
918.65	849.00
918.90	852.00
919.14	843.00
919.39	883.00
919.63	864.00
919.88	851.00
920.12	880.00
920.37	892.00
920.61	846.00
920.86	894.00
921.10	894.00
921.35	862.00
921.59	843.00
921.84	881.00
922.08	905.00
922.33	907.00
922.57	855.00
922.82	845.00
923.06	869.00
923.31	897.00
923.55	837.00
923.80	865.00
924.04	862.00
924.29	884.00
924.53	850.00
924.78	874.00
925.02	869.00
925.27	874.00
925.51	872.00
925.76	896.00
926.00	867.00
926.25	880.00
926.49	852.00
926.73	888.00
926.98	891.00
927.22	902.00
927.47	884.00
927.71	875.00
927.96	891.00
928.20	885.00
928.45	876.00
928.69	907.00
928.94	896.00
929.18	877.00
929.43	890.00
929.67	872.00
929.91	873.00
930.16	878.00
930.40	841.00
930.65	849.00
930.89	887.00
931.14	918.00
931.38	880.00
931.63	884.00
931.87	892.00
932.12	898.00
932.36	851.00
932.60	875.00
932.85	891.00
933.09	889.00
933.34	848.00
933.58	888.00
933.83	869.00
934.07	893.00
934.32	874.00
934.56	886.00
934.80	930.00
935.05	927.00
935.29	876.00
935.54	888.00
935.78	892.00
936.03	891.00
936.27	836.00
936.52	868.00
936.76	873.00
937.00	893.00
937.25	875.00
937.49	893.00
937.74	911.00
937.98	898.00
938.23	843.00
938.47	855.00
938.71	873.00
938.96	869.00
939.20	859.00
939.45	865.00
939.69	881.00
939.94	902.00
940.18	848.00
940.42	872.00
940.67	893.00
940.91	895.00
941.16	862.00
941.40	866.00
941.64	892.00
941.89	891.00
942.13	852.00
942.38	880.00
942.62	965.00
942.87	929.00
943.11	883.00
943.35	868.00
943.60	872.00
943.84	906.00
944.09	871.00
944.33	894.00
944.57	910.00
944.82	880.00
945.06	851.00
945.31	877.00
945.55	869.00
945.79	897.00
946.04	849.00
946.28	852.00
946.53	864.00
946.77	901.00
947.01	842.00
947.26	890.00
947.50	874.00
947.75	891.00
947.99	872.00
948.23	891.00
948.48	881.00
948.72	892.00
948.97	871.00
949.21	869.00
949.45	893.00
949.70	911.00
949.94	865.00
950.18	884.00
950.43	881.00
950.67	878.00
950.92	848.00
951.16	862.00
951.40	866.00
951.65	882.00
951.89	872.00
952.13	871.00
952.38	886.00
952.62	887.00
952.87	862.00
953.11	906.00
953.35	928.00
953.60	899.00
953.84	817.00
954.08	845.00
954.33	884.00
954.57	889.00
954.82	876.00
955.06	862.00
955.30	861.00
955.55	875.00
955.79	857.00
956.03	863.00
956.28	880.00
956.52	883.00
956.76	867.00
957.01	892.00
957.25	888.00
957.50	891.00
957.74	854.00
957.98	858.00
958.23	891.00
958.47	888.00
958.71	876.00
958.96	879.00
959.20	895.00
959.44	876.00
959.69	853.00
959.93	886.00
960.17	890.00
960.42	901.00
960.66	875.00
960.90	889.00
961.15	894.00
961.39	904.00
961.64	845.00
961.88	857.00
962.12	903.00
962.37	905.00
962.61	860.00
962.85	860.00
963.10	896.00
963.34	892.00
963.58	860.00
963.83	892.00
964.07	883.00
964.31	891.00
964.56	891.00
964.80	871.00
965.04	870.00
965.29	888.00
965.53	845.00
965.77	868.00
966.02	840.00
966.26	871.00
966.50	851.00
966.74	876.00
966.99	900.00
967.23	895.00
967.47	872.00
967.72	887.00
967.96	883.00
968.20	886.00
968.45	849.00
968.69	866.00
968.93	854.00
969.18	879.00
969.42	885.00
969.66	873.00
969.91	874.00
970.15	916.00
970.39	872.00
970.64	875.00
970.88	888.00
971.12	905.00
971.36	872.00
971.61	878.00
971.85	881.00
972.09	862.00
972.34	846.00
972.58	873.00
972.82	892.00
973.07	908.00
973.31	849.00
973.55	878.00
973.79	887.00
974.04	921.00
974.28	880.00
974.52	871.00
974.77	861.00
975.01	890.00
975.25	854.00
975.50	876.00
975.74	898.00
975.98	912.00
976.22	868.00
976.47	865.00
976.71	885.00
976.95	903.00
977.20	898.00
977.44	892.00
977.68	881.00
977.92	891.00
978.17	848.00
978.41	859.00
978.65	890.00
978.90	870.00
979.14	854.00
979.38	877.00
979.62	886.00
979.87	879.00
980.11	849.00
980.35	876.00
980.59	896.00
980.84	884.00
981.08	860.00
981.32	865.00
981.57	888.00
981.81	874.00
982.05	856.00
982.29	874.00
982.54	883.00
982.78	895.00
983.02	861.00
983.26	876.00
983.51	900.00
983.75	908.00
983.99	853.00
984.23	888.00
984.48	881.00
984.72	911.00
984.96	833.00
985.20	862.00
985.45	923.00
985.69	888.00
985.93	867.00
986.17	885.00
986.42	893.00
986.66	884.00
986.90	823.00
987.14	857.00
987.39	871.00
987.63	862.00
987.87	840.00
988.11	863.00
988.36	897.00
988.60	893.00
988.84	875.00
989.08	849.00
989.33	888.00
989.57	882.00
989.81	828.00
990.05	844.00
990.30	842.00
990.54	834.00
990.78	846.00
991.02	849.00
991.27	880.00
991.51	898.00
991.75	849.00
991.99	894.00
992.23	871.00
992.48	874.00
992.72	858.00
992.96	867.00
993.20	865.00
993.45	885.00
993.69	880.00
993.93	862.00
994.17	893.00
994.41	890.00
994.66	839.00
994.90	861.00
995.14	909.00
995.38	900.00
995.63	865.00
995.87	859.00
996.11	916.00
996.35	904.00
996.59	851.00
996.84	862.00
997.08	886.00
997.32	867.00
997.56	861.00
997.80	834.00
998.05	856.00
998.29	860.00
998.53	837.00
998.77	868.00
999.01	909.00
999.26	893.00
999.50	863.00
999.74	844.00
999.98	877.00
1000.22	887.00
1000.47	844.00
1000.71	855.00
1000.95	886.00
1001.19	886.00
1001.43	881.00
1001.68	882.00
1001.92	860.00
1002.16	871.00
1002.40	843.00
1002.64	885.00
1002.89	882.00
1003.13	893.00
1003.37	870.00
1003.61	866.00
1003.85	880.00
1004.10	873.00
1004.34	850.00
1004.58	861.00
1004.82	877.00
1005.06	873.00
1005.30	855.00
1005.55	861.00
1005.79	900.00
1006.03	890.00
1006.27	869.00
1006.51	879.00
1006.76	874.00
1007.00	906.00
1007.24	887.00
1007.48	872.00
1007.72	908.00
1007.96	894.00
1008.21	872.00
1008.45	888.00
1008.69	899.00
1008.93	904.00
1009.17	882.00
1009.41	897.00
1009.66	916.00
1009.90	889.00
1010.14	858.00
1010.38	877.00
1010.62	900.00
1010.86	918.00
1011.10	870.00
1011.35	866.00
1011.59	871.00
1011.83	868.00
1012.07	828.00
1012.31	852.00
1012.55	893.00
1012.80	899.00
1013.04	871.00
1013.28	876.00
1013.52	878.00
1013.76	888.00
1014.00	848.00
1014.24	864.00
1014.49	905.00
1014.73	935.00
1014.97	903.00
1015.21	876.00
1015.45	882.00
1015.69	881.00
1015.93	864.00
1016.18	869.00
1016.42	915.00
1016.66	898.00
1016.90	846.00
1017.14	854.00
1017.38	862.00
1017.62	866.00
1017.87	862.00
1018.11	866.00
1018.35	875.00
1018.59	892.00
1018.83	834.00
1019.07	862.00
1019.31	899.00
1019.55	921.00
1019.80	875.00
1020.04	884.00
1020.28	883.00
1020.52	894.00
1020.76	852.00
1021.00	839.00
1021.24	860.00
1021.48	868.00
1021.73	873.00
1021.97	878.00
1022.21	888.00
1022.45	891.00
1022.69	868.00
1022.93	865.00
1023.17	886.00
1023.41	929.00
1023.65	892.00
1023.90	907.00
1024.14	899.00
1024.38	869.00
1024.62	833.00
1024.86	865.00
1025.10	898.00
1025.34	882.00
1025.58	847.00
1025.82	858.00
1026.07	909.00
1026.31	892.00
1026.55	860.00
1026.79	857.00
1027.03	894.00
1027.27	890.00
1027.51	842.00
1027.75	847.00
1027.99	873.00
1028.23	910.00
1028.47	876.00
1028.72	860.00
1028.96	890.00
1029.20	886.00
1029.44	868.00
1029.68	881.00
1029.92	885.00
1030.16	909.00
1030.40	850.00
1030.64	864.00
1030.88	872.00
1031.12	875.00
1031.37	838.00
1031.61	872.00
1031.85	916.00
1032.09	914.00
1032.33	872.00
1032.57	917.00
1032.81	881.00
1033.05	901.00
1033.29	864.00
1033.53	865.00
1033.77	921.00
1034.01	904.00
1034.25	873.00
1034.50	879.00
1034.74	880.00
1034.98	891.00
1035.22	873.00
1035.46	871.00
1035.70	913.00
1035.94	907.00
1036.18	885.00
1036.42	862.00
1036.66	860.00
1036.90	865.00
1037.14	836.00
1037.38	856.00
1037.62	884.00
1037.86	875.00
1038.10	877.00
1038.35	872.00
1038.59	887.00
1038.83	902.00
1039.07	882.00
1039.31	890.00
1039.55	862.00
1039.79	876.00
1040.03	838.00
1040.27	846.00
1040.51	903.00
1040.75	943.00
1040.99	878.00
1041.23	867.00
1041.47	875.00
1041.71	926.00
1041.95	873.00
1042.19	874.00
1042.43	920.00
1042.67	912.00
1042.91	858.00
1043.15	853.00
1043.39	920.00
1043.64	899.00
1043.88	855.00
1044.12	890.00
1044.36	938.00
1044.60	912.00
1044.84	879.00
1045.08	887.00
1045.32	890.00
1045.56	904.00
1045.80	873.00
1046.04	874.00
1046.28	910.00
1046.52	893.00
1046.76	832.00
1047.00	852.00
1047.24	897.00
1047.48	892.00
1047.72	873.00
1047.96	868.00
1048.20	897.00
1048.44	892.00
1048.68	857.00
1048.92	862.00
1049.16	876.00
1049.40	899.00
1049.64	871.00
1049.88	891.00
1050.12	897.00
1050.36	917.00
1050.60	883.00
1050.84	884.00
1051.08	894.00
1051.32	872.00
1051.56	872.00
1051.80	876.00
1052.04	882.00
1052.28	898.00
1052.52	857.00
1052.76	854.00
1053.00	864.00
1053.24	894.00
1053.48	859.00
1053.72	876.00
1053.96	885.00
1054.20	893.00
1054.44	873.00
1054.68	891.00
1054.92	898.00
1055.16	849.00
1055.40	852.00
1055.64	881.00
1055.88	903.00
1056.12	917.00
1056.36	844.00
1056.60	849.00
1056.84	899.00
1057.08	896.00
1057.32	880.00
1057.56	859.00
1057.80	882.00
1058.04	908.00
1058.28	866.00
1058.52	878.00
1058.76	900.00
1059.00	907.00
1059.24	856.00
1059.48	854.00
1059.72	901.00
1059.96	892.00
1060.20	878.00
1060.44	902.00
1060.68	920.00
1060.92	894.00
1061.16	859.00
1061.40	860.00
1061.64	888.00
1061.88	872.00
1062.11	850.00
1062.35	853.00
1062.59	862.00
1062.83	908.00
1063.07	872.00
1063.31	856.00
1063.55	873.00
1063.79	906.00
1064.03	880.00
1064.27	858.00
1064.51	901.00
1064.75	908.00
1064.99	881.00
1065.23	871.00
1065.47	858.00
1065.71	885.00
1065.95	873.00
1066.19	876.00
1066.43	906.00
1066.67	895.00
1066.91	885.00
1067.15	894.00
1067.38	878.00
1067.62	891.00
1067.86	859.00
1068.10	886.00
1068.34	924.00
1068.58	903.00
1068.82	863.00
1069.06	837.00
1069.30	902.00
1069.54	914.00
1069.78	900.00
1070.02	866.00
1070.26	894.00
1070.50	930.00
1070.74	884.00
1070.98	902.00
1071.21	901.00
1071.45	888.00
1071.69	846.00
1071.93	883.00
1072.17	918.00
1072.41	905.00
1072.65	884.00
1072.89	902.00
1073.13	877.00
1073.37	889.00
1073.61	864.00
1073.85	872.00
1074.09	851.00
1074.32	857.00
1074.56	863.00
1074.80	938.00
1075.04	1146.00
1075.28	988.00
1075.52	876.00
1075.76	885.00
1076.00	895.00
1076.24	893.00
1076.48	884.00
1076.72	885.00
1076.96	916.00
1077.19	900.00
1077.43	862.00
1077.67	896.00
1077.91	891.00
1078.15	885.00
1078.39	873.00
1078.63	880.00
1078.87	888.00
1079.11	909.00
1079.35	868.00
1079.58	859.00
1079.82	871.00
1080.06	877.00
1080.30	858.00
1080.54	908.00
1080.78	933.00
1081.02	893.00
1081.26	860.00
1081.50	900.00
1081.74	891.00
1081.97	902.00
1082.21	866.00
1082.45	891.00
1082.69	891.00
1082.93	877.00
1083.17	877.00
1083.41	863.00
1083.65	922.00
1083.88	933.00
1084.12	880.00
1084.36	873.00
1084.60	900.00
1084.84	903.00
1085.08	848.00
1085.32	858.00
1085.56	902.00
1085.80	891.00
1086.03	877.00
1086.27	854.00
1086.51	888.00
1086.75	905.00
1086.99	863.00
1087.23	852.00
1087.47	882.00
1087.70	875.00
1087.94	881.00
1088.18	901.00
1088.42	932.00
1088.66	881.00
1088.90	821.00
1089.14	856.00
1089.38	876.00
1089.61	906.00
1089.85	868.00
1090.09	867.00
1090.33	928.00
1090.57	931.00
1090.81	836.00
1091.05	851.00
1091.28	895.00
1091.52	902.00
1091.76	871.00
1092.00	876.00
1092.24	892.00
1092.48	892.00
1092.71	850.00
1092.95	882.00
1093.19	895.00
1093.43	893.00
1093.67	848.00
1093.91	873.00
1094.15	896.00
1094.38	899.00
1094.62	836.00
1094.86	848.00
1095.10	853.00
1095.34	876.00
1095.58	863.00
1095.81	874.00
1096.05	897.00
1096.29	918.00
1096.53	853.00
1096.77	866.00
1097.01	865.00
1097.24	897.00
1097.48	854.00
1097.72	876.00
1097.96	881.00
1098.20	891.00
1098.44	841.00
1098.67	839.00
1098.91	901.00
1099.15	882.00
1099.39	858.00
1099.63	866.00
1099.86	887.00
1100.10	870.00
1100.34	868.00
1100.58	860.00
1100.82	883.00
1101.06	890.00
1101.29	842.00
1101.53	857.00
1101.77	881.00
1102.01	866.00
1102.25	864.00
1102.48	890.00
1102.72	928.00
1102.96	906.00
1103.20	828.00
1103.44	852.00
1103.67	874.00
1103.91	884.00
1104.15	849.00
1104.39	853.00
1104.63	879.00
1104.86	851.00
1105.10	858.00
1105.34	893.00
1105.58	872.00
1105.82	861.00
1106.05	874.00
1106.29	894.00
1106.53	898.00
1106.77	931.00
1107.01	859.00
1107.24	890.00
1107.48	922.00
1107.72	905.00
1107.96	840.00
1108.20	868.00
1108.43	882.00
1108.67	879.00
1108.91	858.00
1109.15	855.00
1109.39	858.00
1109.62	890.00
1109.86	852.00
1110.10	853.00
1110.34	911.00
1110.57	925.00
1110.81	861.00
1111.05	872.00
1111.29	910.00
1111.53	919.00
1111.76	860.00
1112.00	892.00
1112.24	907.00
1112.48	872.00
1112.71	848.00
1112.95	884.00
1113.19	913.00
1113.43	891.00
1113.66	836.00
1113.90	876.00
1114.14	897.00
1114.38	908.00
1114.62	839.00
1114.85	879.00
1115.09	898.00
1115.33	951.00
1115.57	897.00
1115.80	859.00
1116.04	883.00
1116.28	892.00
1116.52	857.00
1116.75	868.00
1116.99	908.00
1117.23	908.00
1117.47	890.00
1117.70	899.00
1117.94	952.00
1118.18	897.00
1118.42	850.00
1118.65	880.00
1118.89	907.00
1119.13	895.00
1119.37	862.00
1119.60	891.00
1119.84	901.00
>>>>>End Processed Spectral Data<<<<<
