SpectraSuite Data File
++++++++++++++++++++++++++++++++++++
Date: Fri Dec 06 15:53:02 CET 2024
User: student
Dark Spectrum Present: No
Reference Spectrum Present: No
Number of Sampled Component Spectra: 1
Spectrometers: HR4C155
Integration Time (usec): 100000 (HR4C155)
Spectra Averaged: 1 (HR4C155)
Boxcar Smoothing: 0 (HR4C155)
Correct for Electrical Dark: No (HR4C155)
Strobe/Lamp Enabled: No (HR4C155)
Correct for Detector Non-linearity: No (HR4C155)
Correct for Stray Light: No (HR4C155)
Number of Pixels in Processed Spectrum: 3648
>>>>>Begin Processed Spectral Data<<<<<
195.39	704.00
195.66	704.00
195.93	704.00
196.20	665.00
196.46	718.00
196.73	844.00
197.00	844.00
197.27	846.00
197.54	865.00
197.81	870.00
198.08	877.00
198.35	897.00
198.61	898.00
198.88	858.00
199.15	850.00
199.42	868.00
199.69	902.00
199.96	859.00
200.23	875.00
200.49	885.00
200.76	898.00
201.03	900.00
201.30	871.00
201.57	921.00
201.84	939.00
202.11	906.00
202.38	922.00
202.64	909.00
202.91	933.00
203.18	870.00
203.45	932.00
203.72	1018.00
203.99	926.00
204.25	926.00
204.52	935.00
204.79	937.00
205.06	936.00
205.33	871.00
205.60	916.00
205.87	953.00
206.13	954.00
206.40	905.00
206.67	884.00
206.94	921.00
207.21	924.00
207.48	914.00
207.75	901.00
208.01	945.00
208.28	941.00
208.55	894.00
208.82	922.00
209.09	917.00
209.36	950.00
209.62	925.00
209.89	927.00
210.16	933.00
210.43	977.00
210.70	894.00
210.97	916.00
211.23	937.00
211.50	972.00
211.77	902.00
212.04	907.00
212.31	922.00
212.58	961.00
212.84	927.00
213.11	914.00
213.38	886.00
213.65	913.00
213.92	902.00
214.18	917.00
214.45	962.00
214.72	953.00
214.99	892.00
215.26	905.00
215.53	901.00
215.79	933.00
216.06	942.00
216.33	932.00
216.60	905.00
216.87	940.00
217.13	863.00
217.40	896.00
217.67	917.00
217.94	945.00
218.21	884.00
218.48	940.00
218.74	995.00
219.01	950.00
219.28	888.00
219.55	887.00
219.82	930.00
220.08	946.00
220.35	905.00
220.62	910.00
220.89	954.00
221.16	972.00
221.42	917.00
221.69	924.00
221.96	948.00
222.23	961.00
222.50	939.00
222.76	945.00
223.03	916.00
223.30	914.00
223.57	888.00
223.84	897.00
224.10	906.00
224.37	933.00
224.64	892.00
224.91	903.00
225.18	961.00
225.44	942.00
225.71	902.00
225.98	929.00
226.25	955.00
226.51	964.00
226.78	887.00
227.05	910.00
227.32	932.00
227.59	929.00
227.85	922.00
228.12	922.00
228.39	948.00
228.66	947.00
228.92	955.00
229.19	927.00
229.46	931.00
229.73	921.00
230.00	891.00
230.26	913.00
230.53	946.00
230.80	949.00
231.07	876.00
231.33	881.00
231.60	926.00
231.87	935.00
232.14	909.00
232.41	947.00
232.67	948.00
232.94	951.00
233.21	887.00
233.48	931.00
233.74	944.00
234.01	927.00
234.28	892.00
234.55	901.00
234.81	912.00
235.08	945.00
235.35	892.00
235.62	908.00
235.88	938.00
236.15	954.00
236.42	927.00
236.69	929.00
236.95	939.00
237.22	913.00
237.49	907.00
237.76	916.00
238.02	938.00
238.29	949.00
238.56	898.00
238.83	895.00
239.09	901.00
239.36	933.00
239.63	901.00
239.90	916.00
240.16	954.00
240.43	991.00
240.70	909.00
240.97	917.00
241.23	921.00
241.50	933.00
241.77	898.00
242.04	900.00
242.30	880.00
242.57	900.00
242.84	888.00
243.11	916.00
243.37	884.00
243.64	954.00
243.91	897.00
244.18	904.00
244.44	886.00
244.71	892.00
244.98	908.00
245.24	917.00
245.51	928.00
245.78	959.00
246.05	884.00
246.31	905.00
246.58	944.00
246.85	917.00
247.12	905.00
247.38	940.00
247.65	913.00
247.92	947.00
248.18	917.00
248.45	918.00
248.72	914.00
248.99	913.00
249.25	883.00
249.52	910.00
249.79	930.00
250.05	930.00
250.32	909.00
250.59	916.00
250.86	930.00
251.12	922.00
251.39	900.00
251.66	931.00
251.92	935.00
252.19	952.00
252.46	901.00
252.73	949.00
252.99	951.00
253.26	965.00
253.53	901.00
253.79	928.00
254.06	930.00
254.33	897.00
254.60	877.00
254.86	881.00
255.13	929.00
255.40	952.00
255.66	914.00
255.93	941.00
256.20	963.00
256.46	936.00
256.73	893.00
257.00	931.00
257.26	939.00
257.53	938.00
257.80	926.00
258.07	937.00
258.33	972.00
258.60	951.00
258.87	891.00
259.13	922.00
259.40	914.00
259.67	962.00
259.93	905.00
260.20	916.00
260.47	950.00
260.73	945.00
261.00	886.00
261.27	920.00
261.53	934.00
261.80	933.00
262.07	886.00
262.34	910.00
262.60	888.00
262.87	920.00
263.14	893.00
263.40	929.00
263.67	914.00
263.94	915.00
264.20	915.00
264.47	866.00
264.74	881.00
265.00	900.00
265.27	887.00
265.54	895.00
265.80	935.00
266.07	953.00
266.34	900.00
266.60	901.00
266.87	930.00
267.14	938.00
267.40	909.00
267.67	885.00
267.94	920.00
268.20	928.00
268.47	888.00
268.74	898.00
269.00	926.00
269.27	923.00
269.54	851.00
269.80	886.00
270.07	943.00
270.33	908.00
270.60	912.00
270.87	942.00
271.13	920.00
271.40	914.00
271.67	861.00
271.93	869.00
272.20	924.00
272.47	891.00
272.73	863.00
273.00	893.00
273.27	902.00
273.53	945.00
273.80	921.00
274.07	888.00
274.33	892.00
274.60	926.00
274.86	901.00
275.13	901.00
275.40	891.00
275.66	954.00
275.93	891.00
276.20	888.00
276.46	896.00
276.73	901.00
277.00	887.00
277.26	933.00
277.53	956.00
277.79	917.00
278.06	901.00
278.33	947.00
278.59	923.00
278.86	894.00
279.13	901.00
279.39	914.00
279.66	959.00
279.93	942.00
280.19	890.00
280.46	893.00
280.72	906.00
280.99	940.00
281.26	899.00
281.52	891.00
281.79	927.00
282.05	938.00
282.32	892.00
282.59	910.00
282.85	940.00
283.12	940.00
283.39	901.00
283.65	929.00
283.92	940.00
284.18	949.00
284.45	903.00
284.72	906.00
284.98	924.00
285.25	906.00
285.51	924.00
285.78	910.00
286.05	918.00
286.31	923.00
286.58	872.00
286.84	878.00
287.11	886.00
287.38	925.00
287.64	915.00
287.91	885.00
288.17	933.00
288.44	923.00
288.71	859.00
288.97	889.00
289.24	930.00
289.50	902.00
289.77	900.00
290.04	867.00
290.30	888.00
290.57	945.00
290.83	884.00
291.10	877.00
291.37	913.00
291.63	903.00
291.90	914.00
292.16	901.00
292.43	929.00
292.70	911.00
292.96	865.00
293.23	871.00
293.49	903.00
293.76	926.00
294.02	887.00
294.29	901.00
294.56	920.00
294.82	930.00
295.09	894.00
295.35	873.00
295.62	945.00
295.89	946.00
296.15	876.00
296.42	874.00
296.68	905.00
296.95	919.00
297.21	924.00
297.48	894.00
297.75	915.00
298.01	951.00
298.28	898.00
298.54	904.00
298.81	928.00
299.07	921.00
299.34	856.00
299.61	899.00
299.87	930.00
300.14	922.00
300.40	923.00
300.67	910.00
300.93	930.00
301.20	974.00
301.46	891.00
301.73	892.00
302.00	918.00
302.26	895.00
302.53	908.00
302.79	913.00
303.06	926.00
303.32	974.00
303.59	880.00
303.85	869.00
304.12	898.00
304.39	922.00
304.65	903.00
304.92	894.00
305.18	918.00
305.45	931.00
305.71	900.00
305.98	903.00
306.24	920.00
306.51	917.00
306.77	893.00
307.04	910.00
307.31	931.00
307.57	934.00
307.84	878.00
308.10	902.00
308.37	902.00
308.63	898.00
308.90	873.00
309.16	908.00
309.43	934.00
309.69	902.00
309.96	892.00
310.22	903.00
310.49	925.00
310.76	923.00
311.02	870.00
311.29	891.00
311.55	911.00
311.82	908.00
312.08	891.00
312.35	917.00
312.61	920.00
312.88	918.00
313.14	889.00
313.41	893.00
313.67	885.00
313.94	927.00
314.20	909.00
314.47	916.00
314.73	913.00
315.00	884.00
315.26	874.00
315.53	914.00
315.79	929.00
316.06	946.00
316.32	893.00
316.59	918.00
316.85	911.00
317.12	916.00
317.39	872.00
317.65	898.00
317.92	886.00
318.18	918.00
318.45	894.00
318.71	942.00
318.98	958.00
319.24	941.00
319.51	916.00
319.77	898.00
320.04	908.00
320.30	910.00
320.57	878.00
320.83	887.00
321.10	866.00
321.36	881.00
321.63	862.00
321.89	872.00
322.16	933.00
322.42	921.00
322.69	901.00
322.95	900.00
323.22	922.00
323.48	938.00
323.75	883.00
324.01	899.00
324.28	908.00
324.54	927.00
324.80	890.00
325.07	924.00
325.33	937.00
325.60	910.00
325.86	861.00
326.13	900.00
326.39	902.00
326.66	882.00
326.92	870.00
327.19	901.00
327.45	948.00
327.72	946.00
327.98	877.00
328.25	861.00
328.51	910.00
328.78	923.00
329.04	890.00
329.31	917.00
329.57	918.00
329.84	911.00
330.10	877.00
330.37	890.00
330.63	941.00
330.89	963.00
331.16	905.00
331.42	905.00
331.69	940.00
331.95	922.00
332.22	901.00
332.48	933.00
332.75	906.00
333.01	882.00
333.28	888.00
333.54	890.00
333.81	911.00
334.07	939.00
334.34	918.00
334.60	899.00
334.86	958.00
335.13	972.00
335.39	925.00
335.66	908.00
335.92	925.00
336.19	928.00
336.45	854.00
336.72	866.00
336.98	890.00
337.24	921.00
337.51	876.00
337.77	889.00
338.04	902.00
338.30	914.00
338.57	881.00
338.83	900.00
339.10	927.00
339.36	922.00
339.63	875.00
339.89	861.00
340.15	888.00
340.42	927.00
340.68	922.00
340.95	921.00
341.21	927.00
341.48	921.00
341.74	870.00
342.00	875.00
342.27	910.00
342.53	929.00
342.80	886.00
343.06	901.00
343.33	925.00
343.59	936.00
343.85	911.00
344.12	917.00
344.38	965.00
344.65	951.00
344.91	890.00
345.18	875.00
345.44	893.00
345.70	887.00
345.97	849.00
346.23	886.00
346.50	919.00
346.76	924.00
347.03	907.00
347.29	907.00
347.55	906.00
347.82	894.00
348.08	849.00
348.35	877.00
348.61	954.00
348.87	936.00
349.14	884.00
349.40	874.00
349.67	920.00
349.93	911.00
350.20	896.00
350.46	900.00
350.72	935.00
350.99	901.00
351.25	899.00
351.52	906.00
351.78	899.00
352.04	898.00
352.31	903.00
352.57	891.00
352.84	895.00
353.10	914.00
353.36	909.00
353.63	897.00
353.89	906.00
354.16	926.00
354.42	907.00
354.68	913.00
354.95	950.00
355.21	934.00
355.48	888.00
355.74	929.00
356.00	950.00
356.27	939.00
356.53	872.00
356.80	885.00
357.06	919.00
357.32	933.00
357.59	913.00
357.85	921.00
358.11	969.00
358.38	945.00
358.64	911.00
358.91	901.00
359.17	913.00
359.43	934.00
359.70	929.00
359.96	921.00
360.22	940.00
360.49	918.00
360.75	894.00
361.02	884.00
361.28	889.00
361.54	911.00
361.81	877.00
362.07	909.00
362.33	891.00
362.60	892.00
362.86	884.00
363.13	913.00
363.39	928.00
363.65	931.00
363.92	867.00
364.18	861.00
364.44	912.00
364.71	926.00
364.97	901.00
365.24	885.00
365.50	926.00
365.76	923.00
366.03	899.00
366.29	930.00
366.55	945.00
366.82	905.00
367.08	867.00
367.34	903.00
367.61	930.00
367.87	931.00
368.13	922.00
368.40	893.00
368.66	949.00
368.93	950.00
369.19	870.00
369.45	895.00
369.72	934.00
369.98	919.00
370.24	881.00
370.51	886.00
370.77	917.00
371.03	917.00
371.30	899.00
371.56	941.00
371.82	939.00
372.09	919.00
372.35	894.00
372.61	888.00
372.88	898.00
373.14	908.00
373.40	904.00
373.67	901.00
373.93	921.00
374.19	934.00
374.46	886.00
374.72	874.00
374.98	907.00
375.25	913.00
375.51	902.00
375.77	922.00
376.04	926.00
376.30	935.00
376.56	889.00
376.83	901.00
377.09	923.00
377.35	928.00
377.62	902.00
377.88	894.00
378.14	912.00
378.41	930.00
378.67	899.00
378.93	901.00
379.20	927.00
379.46	894.00
379.72	877.00
379.99	876.00
380.25	887.00
380.51	876.00
380.77	865.00
381.04	882.00
381.30	922.00
381.56	948.00
381.83	911.00
382.09	902.00
382.35	903.00
382.62	924.00
382.88	919.00
383.14	914.00
383.41	899.00
383.67	897.00
383.93	909.00
384.20	905.00
384.46	923.00
384.72	937.00
384.98	873.00
385.25	894.00
385.51	926.00
385.77	906.00
386.04	891.00
386.30	870.00
386.56	927.00
386.82	966.00
387.09	902.00
387.35	937.00
387.61	983.00
387.88	923.00
388.14	904.00
388.40	913.00
388.67	889.00
388.93	896.00
389.19	892.00
389.45	876.00
389.72	905.00
389.98	926.00
390.24	891.00
390.51	889.00
390.77	926.00
391.03	941.00
391.29	885.00
391.56	906.00
391.82	927.00
392.08	948.00
392.35	895.00
392.61	886.00
392.87	911.00
393.13	947.00
393.40	906.00
393.66	899.00
393.92	919.00
394.18	906.00
394.45	863.00
394.71	877.00
394.97	912.00
395.24	897.00
395.50	891.00
395.76	905.00
396.02	919.00
396.29	917.00
396.55	874.00
396.81	866.00
397.07	902.00
397.34	898.00
397.60	871.00
397.86	870.00
398.12	887.00
398.39	919.00
398.65	880.00
398.91	885.00
399.17	913.00
399.44	867.00
399.70	837.00
399.96	875.00
400.22	897.00
400.49	938.00
400.75	882.00
401.01	894.00
401.27	886.00
401.54	922.00
401.80	878.00
402.06	889.00
402.32	931.00
402.59	903.00
402.85	873.00
403.11	897.00
403.37	897.00
403.64	927.00
403.90	877.00
404.16	878.00
404.42	895.00
404.69	884.00
404.95	877.00
405.21	876.00
405.47	904.00
405.74	930.00
406.00	888.00
406.26	872.00
406.52	910.00
406.79	922.00
407.05	890.00
407.31	907.00
407.57	914.00
407.83	924.00
408.10	868.00
408.36	873.00
408.62	899.00
408.88	894.00
409.15	877.00
409.41	849.00
409.67	876.00
409.93	934.00
410.20	902.00
410.46	891.00
410.72	880.00
410.98	916.00
411.24	886.00
411.51	889.00
411.77	883.00
412.03	899.00
412.29	905.00
412.55	914.00
412.82	901.00
413.08	935.00
413.34	910.00
413.60	897.00
413.87	901.00
414.13	927.00
414.39	869.00
414.65	899.00
414.91	920.00
415.18	897.00
415.44	866.00
415.70	870.00
415.96	895.00
416.22	905.00
416.49	881.00
416.75	877.00
417.01	898.00
417.27	892.00
417.53	890.00
417.80	903.00
418.06	922.00
418.32	925.00
418.58	883.00
418.84	890.00
419.11	903.00
419.37	916.00
419.63	869.00
419.89	884.00
420.15	915.00
420.42	921.00
420.68	883.00
420.94	897.00
421.20	898.00
421.46	913.00
421.72	909.00
421.99	905.00
422.25	915.00
422.51	896.00
422.77	876.00
423.03	902.00
423.30	890.00
423.56	914.00
423.82	922.00
424.08	911.00
424.34	905.00
424.60	911.00
424.87	880.00
425.13	868.00
425.39	903.00
425.65	893.00
425.91	868.00
426.18	902.00
426.44	911.00
426.70	872.00
426.96	851.00
427.22	862.00
427.48	886.00
427.75	885.00
428.01	849.00
428.27	877.00
428.53	913.00
428.79	892.00
429.05	866.00
429.32	876.00
429.58	910.00
429.84	887.00
430.10	905.00
430.36	915.00
430.62	927.00
430.88	919.00
431.15	882.00
431.41	900.00
431.67	914.00
431.93	891.00
432.19	858.00
432.45	895.00
432.72	916.00
432.98	910.00
433.24	910.00
433.50	988.00
433.76	884.00
434.02	871.00
434.28	861.00
434.55	888.00
434.81	927.00
435.07	921.00
435.33	857.00
435.59	878.00
435.85	900.00
436.11	902.00
436.38	881.00
436.64	893.00
436.90	900.00
437.16	894.00
437.42	865.00
437.68	892.00
437.94	905.00
438.21	926.00
438.47	921.00
438.73	901.00
438.99	909.00
439.25	911.00
439.51	892.00
439.77	901.00
440.03	910.00
440.30	920.00
440.56	889.00
440.82	914.00
441.08	933.00
441.34	920.00
441.60	874.00
441.86	895.00
442.12	915.00
442.39	901.00
442.65	869.00
442.91	886.00
443.17	896.00
443.43	915.00
443.69	896.00
443.95	863.00
444.21	884.00
444.47	923.00
444.74	871.00
445.00	887.00
445.26	877.00
445.52	893.00
445.78	857.00
446.04	874.00
446.30	921.00
446.56	927.00
446.82	876.00
447.09	885.00
447.35	919.00
447.61	921.00
447.87	890.00
448.13	896.00
448.39	959.00
448.65	924.00
448.91	863.00
449.17	873.00
449.43	888.00
449.70	905.00
449.96	856.00
450.22	877.00
450.48	912.00
450.74	938.00
451.00	895.00
451.26	881.00
451.52	873.00
451.78	869.00
452.04	868.00
452.31	901.00
452.57	915.00
452.83	891.00
453.09	868.00
453.35	889.00
453.61	907.00
453.87	907.00
454.13	905.00
454.39	909.00
454.65	961.00
454.91	949.00
455.17	878.00
455.44	897.00
455.70	921.00
455.96	925.00
456.22	875.00
456.48	886.00
456.74	926.00
457.00	881.00
457.26	829.00
457.52	875.00
457.78	895.00
458.04	904.00
458.30	848.00
458.56	876.00
458.82	881.00
459.09	885.00
459.35	842.00
459.61	861.00
459.87	901.00
460.13	940.00
460.39	884.00
460.65	869.00
460.91	924.00
461.17	893.00
461.43	854.00
461.69	864.00
461.95	890.00
462.21	891.00
462.47	901.00
462.73	913.00
462.99	923.00
463.26	907.00
463.52	863.00
463.78	862.00
464.04	884.00
464.30	910.00
464.56	877.00
464.82	893.00
465.08	927.00
465.34	932.00
465.60	890.00
465.86	898.00
466.12	898.00
466.38	883.00
466.64	875.00
466.90	891.00
467.16	912.00
467.42	906.00
467.68	870.00
467.94	880.00
468.20	926.00
468.46	916.00
468.72	877.00
468.98	899.00
469.25	918.00
469.51	887.00
469.77	887.00
470.03	893.00
470.29	914.00
470.55	918.00
470.81	889.00
471.07	896.00
471.33	902.00
471.59	912.00
471.85	879.00
472.11	892.00
472.37	913.00
472.63	897.00
472.89	901.00
473.15	882.00
473.41	900.00
473.67	895.00
473.93	855.00
474.19	854.00
474.45	868.00
474.71	889.00
474.97	861.00
475.23	868.00
475.49	896.00
475.75	892.00
476.01	888.00
476.27	908.00
476.53	942.00
476.79	927.00
477.05	893.00
477.31	886.00
477.57	910.00
477.83	907.00
478.09	840.00
478.35	889.00
478.61	924.00
478.87	905.00
479.13	862.00
479.39	911.00
479.65	921.00
479.91	920.00
480.17	889.00
480.43	906.00
480.69	879.00
480.95	913.00
481.21	880.00
481.47	908.00
481.73	923.00
481.99	905.00
482.25	860.00
482.51	858.00
482.77	907.00
483.03	918.00
483.29	890.00
483.55	889.00
483.81	917.00
484.07	912.00
484.33	871.00
484.59	889.00
484.85	922.00
485.11	916.00
485.37	877.00
485.63	879.00
485.89	895.00
486.15	875.00
486.41	865.00
486.67	895.00
486.93	907.00
487.19	884.00
487.45	881.00
487.71	875.00
487.97	913.00
488.23	926.00
488.49	867.00
488.75	871.00
489.01	916.00
489.27	929.00
489.53	880.00
489.79	875.00
490.05	891.00
490.31	935.00
490.57	917.00
490.83	944.00
491.08	895.00
491.34	873.00
491.60	847.00
491.86	893.00
492.12	931.00
492.38	929.00
492.64	877.00
492.90	857.00
493.16	916.00
493.42	882.00
493.68	862.00
493.94	901.00
494.20	889.00
494.46	901.00
494.72	866.00
494.98	875.00
495.24	892.00
495.50	905.00
495.76	881.00
496.02	905.00
496.28	938.00
496.54	923.00
496.80	883.00
497.05	858.00
497.31	899.00
497.57	916.00
497.83	866.00
498.09	893.00
498.35	937.00
498.61	915.00
498.87	884.00
499.13	894.00
499.39	910.00
499.65	909.00
499.91	887.00
500.17	865.00
500.43	970.00
500.69	991.00
500.95	891.00
501.20	919.00
501.46	905.00
501.72	903.00
501.98	915.00
502.24	908.00
502.50	941.00
502.76	893.00
503.02	876.00
503.28	909.00
503.54	949.00
503.80	953.00
504.06	918.00
504.32	925.00
504.58	915.00
504.83	887.00
505.09	880.00
505.35	890.00
505.61	880.00
505.87	904.00
506.13	894.00
506.39	879.00
506.65	909.00
506.91	939.00
507.17	881.00
507.43	886.00
507.68	888.00
507.94	920.00
508.20	881.00
508.46	855.00
508.72	933.00
508.98	940.00
509.24	866.00
509.50	903.00
509.76	905.00
510.02	908.00
510.28	878.00
510.53	882.00
510.79	910.00
511.05	900.00
511.31	873.00
511.57	898.00
511.83	904.00
512.09	916.00
512.35	869.00
512.61	878.00
512.87	908.00
513.12	925.00
513.38	856.00
513.64	881.00
513.90	908.00
514.16	938.00
514.42	897.00
514.68	916.00
514.94	938.00
515.20	918.00
515.45	881.00
515.71	878.00
515.97	896.00
516.23	903.00
516.49	874.00
516.75	882.00
517.01	903.00
517.27	893.00
517.53	862.00
517.78	878.00
518.04	876.00
518.30	882.00
518.56	864.00
518.82	897.00
519.08	937.00
519.34	870.00
519.60	862.00
519.85	881.00
520.11	903.00
520.37	904.00
520.63	868.00
520.89	888.00
521.15	894.00
521.41	889.00
521.66	862.00
521.92	870.00
522.18	901.00
522.44	907.00
522.70	882.00
522.96	846.00
523.22	903.00
523.48	898.00
523.73	873.00
523.99	878.00
524.25	935.00
524.51	911.00
524.77	857.00
525.03	874.00
525.29	901.00
525.54	917.00
525.80	865.00
526.06	895.00
526.32	898.00
526.58	896.00
526.84	862.00
527.09	856.00
527.35	884.00
527.61	895.00
527.87	857.00
528.13	901.00
528.39	905.00
528.65	899.00
528.90	853.00
529.16	874.00
529.42	865.00
529.68	880.00
529.94	853.00
530.20	890.00
530.45	883.00
530.71	896.00
530.97	865.00
531.23	870.00
531.49	893.00
531.75	906.00
532.00	878.00
532.26	866.00
532.52	894.00
532.78	888.00
533.04	881.00
533.30	882.00
533.55	893.00
533.81	887.00
534.07	850.00
534.33	881.00
534.59	909.00
534.85	889.00
535.10	877.00
535.36	869.00
535.62	884.00
535.88	885.00
536.14	863.00
536.39	874.00
536.65	930.00
536.91	926.00
537.17	870.00
537.43	881.00
537.69	934.00
537.94	898.00
538.20	869.00
538.46	873.00
538.72	903.00
538.98	894.00
539.23	845.00
539.49	872.00
539.75	918.00
540.01	904.00
540.27	880.00
540.52	909.00
540.78	904.00
541.04	920.00
541.30	871.00
541.56	867.00
541.81	929.00
542.07	966.00
542.33	882.00
542.59	871.00
542.85	876.00
543.10	898.00
543.36	870.00
543.62	884.00
543.88	884.00
544.14	893.00
544.39	862.00
544.65	878.00
544.91	913.00
545.17	891.00
545.43	870.00
545.68	880.00
545.94	923.00
546.20	931.00
546.46	892.00
546.71	883.00
546.97	900.00
547.23	916.00
547.49	881.00
547.75	867.00
548.00	903.00
548.26	933.00
548.52	880.00
548.78	862.00
549.03	870.00
549.29	890.00
549.55	853.00
549.81	863.00
550.07	906.00
550.32	891.00
550.58	851.00
550.84	886.00
551.10	884.00
551.35	886.00
551.61	868.00
551.87	901.00
552.13	901.00
552.39	890.00
552.64	854.00
552.90	876.00
553.16	903.00
553.42	912.00
553.67	872.00
553.93	893.00
554.19	918.00
554.45	930.00
554.70	878.00
554.96	853.00
555.22	881.00
555.48	921.00
555.73	870.00
555.99	896.00
556.25	914.00
556.51	898.00
556.76	880.00
557.02	892.00
557.28	920.00
557.54	887.00
557.79	878.00
558.05	902.00
558.31	898.00
558.57	913.00
558.82	873.00
559.08	829.00
559.34	843.00
559.60	882.00
559.85	876.00
560.11	881.00
560.37	902.00
560.63	884.00
560.88	857.00
561.14	858.00
561.40	917.00
561.66	883.00
561.91	873.00
562.17	881.00
562.43	889.00
562.68	913.00
562.94	894.00
563.20	897.00
563.46	907.00
563.71	922.00
563.97	878.00
564.23	873.00
564.49	901.00
564.74	908.00
565.00	866.00
565.26	868.00
565.51	886.00
565.77	874.00
566.03	851.00
566.29	878.00
566.54	873.00
566.80	888.00
567.06	863.00
567.31	912.00
567.57	925.00
567.83	884.00
568.09	878.00
568.34	872.00
568.60	875.00
568.86	916.00
569.11	893.00
569.37	870.00
569.63	905.00
569.89	918.00
570.14	840.00
570.40	862.00
570.66	898.00
570.91	886.00
571.17	862.00
571.43	906.00
571.69	931.00
571.94	940.00
572.20	872.00
572.46	875.00
572.71	899.00
572.97	898.00
573.23	867.00
573.48	860.00
573.74	879.00
574.00	908.00
574.26	866.00
574.51	893.00
574.77	932.00
575.03	899.00
575.28	877.00
575.54	856.00
575.80	888.00
576.05	907.00
576.31	860.00
576.57	863.00
576.82	900.00
577.08	917.00
577.34	867.00
577.59	871.00
577.85	911.00
578.11	889.00
578.37	870.00
578.62	856.00
578.88	919.00
579.14	918.00
579.39	865.00
579.65	898.00
579.91	889.00
580.16	899.00
580.42	873.00
580.68	881.00
580.93	911.00
581.19	890.00
581.45	870.00
581.70	888.00
581.96	904.00
582.22	919.00
582.47	883.00
582.73	890.00
582.99	926.00
583.24	911.00
583.50	866.00
583.76	868.00
584.01	900.00
584.27	924.00
584.53	889.00
584.78	899.00
585.04	874.00
585.30	902.00
585.55	895.00
585.81	872.00
586.07	929.00
586.32	922.00
586.58	887.00
586.83	871.00
587.09	905.00
587.35	914.00
587.60	862.00
587.86	882.00
588.12	886.00
588.37	895.00
588.63	882.00
588.89	898.00
589.14	909.00
589.40	908.00
589.66	863.00
589.91	880.00
590.17	894.00
590.43	850.00
590.68	841.00
590.94	884.00
591.19	900.00
591.45	876.00
591.71	879.00
591.96	881.00
592.22	913.00
592.48	929.00
592.73	866.00
592.99	877.00
593.25	896.00
593.50	914.00
593.76	863.00
594.01	888.00
594.27	920.00
594.53	886.00
594.78	861.00
595.04	878.00
595.30	888.00
595.55	909.00
595.81	851.00
596.06	891.00
596.32	937.00
596.58	909.00
596.83	878.00
597.09	900.00
597.35	907.00
597.60	881.00
597.86	844.00
598.11	870.00
598.37	928.00
598.63	914.00
598.88	859.00
599.14	861.00
599.39	917.00
599.65	909.00
599.91	839.00
600.16	869.00
600.42	909.00
600.67	926.00
600.93	877.00
601.19	910.00
601.44	956.00
601.70	914.00
601.95	875.00
602.21	917.00
602.47	901.00
602.72	906.00
602.98	875.00
603.23	881.00
603.49	921.00
603.75	933.00
604.00	897.00
604.26	890.00
604.51	899.00
604.77	917.00
605.03	864.00
605.28	876.00
605.54	950.00
605.79	954.00
606.05	851.00
606.31	875.00
606.56	917.00
606.82	920.00
607.07	886.00
607.33	897.00
607.59	931.00
607.84	913.00
608.10	872.00
608.35	890.00
608.61	925.00
608.86	945.00
609.12	908.00
609.38	933.00
609.63	955.00
609.89	931.00
610.14	860.00
610.40	888.00
610.65	914.00
610.91	907.00
611.17	883.00
611.42	896.00
611.68	948.00
611.93	961.00
612.19	926.00
612.44	942.00
612.70	957.00
612.96	905.00
613.21	871.00
613.47	882.00
613.72	923.00
613.98	958.00
614.23	897.00
614.49	925.00
614.75	958.00
615.00	937.00
615.26	907.00
615.51	910.00
615.77	935.00
616.02	962.00
616.28	924.00
616.53	926.00
616.79	956.00
617.05	930.00
617.30	903.00
617.56	929.00
617.81	977.00
618.07	977.00
618.32	924.00
618.58	950.00
618.83	987.00
619.09	981.00
619.34	914.00
619.60	936.00
619.86	993.00
620.11	989.00
620.37	967.00
620.62	973.00
620.88	992.00
621.13	997.00
621.39	954.00
621.64	979.00
621.90	1012.00
622.15	1005.00
622.41	978.00
622.66	1022.00
622.92	1034.00
623.18	1037.00
623.43	971.00
623.69	996.00
623.94	1033.00
624.20	1039.00
624.45	1025.00
624.71	1042.00
624.96	1060.00
625.22	1086.00
625.47	1040.00
625.73	1055.00
625.98	1084.00
626.24	1070.00
626.49	1033.00
626.75	1046.00
627.00	1132.00
627.26	1173.00
627.51	1137.00
627.77	1124.00
628.02	1139.00
628.28	1156.00
628.53	1117.00
628.79	1146.00
629.05	1149.00
629.30	1154.00
629.56	1165.00
629.81	1175.00
630.07	1209.00
630.32	1229.00
630.58	1192.00
630.83	1183.00
631.09	1218.00
631.34	1236.00
631.60	1183.00
631.85	1198.00
632.11	1240.00
632.36	1246.00
632.62	1234.00
632.87	1276.00
633.13	1285.00
633.38	1267.00
633.64	1242.00
633.89	1264.00
634.15	1352.00
634.40	1411.00
634.66	1359.00
634.91	1348.00
635.17	1343.00
635.42	1416.00
635.68	1429.00
635.93	1398.00
636.18	1404.00
636.44	1444.00
636.69	1442.00
636.95	1460.00
637.20	1469.00
637.46	1453.00
637.71	1453.00
637.97	1462.00
638.22	1447.00
638.48	1434.00
638.73	1366.00
638.99	1364.00
639.24	1403.00
639.50	1357.00
639.75	1306.00
640.01	1342.00
640.26	1430.00
640.52	1437.00
640.77	1384.00
641.03	1444.00
641.28	1455.00
641.54	1395.00
641.79	1320.00
642.04	1400.00
642.30	1384.00
642.55	1307.00
642.81	1272.00
643.06	1266.00
643.32	1284.00
643.57	1323.00
643.83	1277.00
644.08	1208.00
644.34	1223.00
644.59	1225.00
644.85	1159.00
645.10	1144.00
645.35	1150.00
645.61	1147.00
645.86	1103.00
646.12	1129.00
646.37	1148.00
646.63	1130.00
646.88	1068.00
647.14	1046.00
647.39	1074.00
647.65	1120.00
647.90	1068.00
648.15	1063.00
648.41	1075.00
648.66	1061.00
648.92	1006.00
649.17	1010.00
649.43	1032.00
649.68	1002.00
649.94	996.00
650.19	980.00
650.44	987.00
650.70	989.00
650.95	944.00
651.21	969.00
651.46	1003.00
651.72	1012.00
651.97	965.00
652.23	945.00
652.48	958.00
652.73	967.00
652.99	931.00
653.24	951.00
653.50	957.00
653.75	947.00
654.01	933.00
654.26	940.00
654.51	959.00
654.77	974.00
655.02	925.00
655.28	889.00
655.53	908.00
655.79	935.00
656.04	915.00
656.29	927.00
656.55	917.00
656.80	925.00
657.06	885.00
657.31	896.00
657.56	895.00
657.82	910.00
658.07	892.00
658.33	909.00
658.58	921.00
658.84	931.00
659.09	891.00
659.34	901.00
659.60	915.00
659.85	909.00
660.11	883.00
660.36	890.00
660.61	893.00
660.87	882.00
661.12	854.00
661.38	881.00
661.63	915.00
661.88	916.00
662.14	907.00
662.39	891.00
662.65	921.00
662.90	951.00
663.15	877.00
663.41	882.00
663.66	936.00
663.92	946.00
664.17	882.00
664.42	893.00
664.68	919.00
664.93	909.00
665.19	876.00
665.44	879.00
665.69	890.00
665.95	900.00
666.20	870.00
666.45	905.00
666.71	904.00
666.96	914.00
667.22	853.00
667.47	863.00
667.72	881.00
667.98	902.00
668.23	862.00
668.49	908.00
668.74	922.00
668.99	908.00
669.25	883.00
669.50	878.00
669.75	894.00
670.01	914.00
670.26	851.00
670.52	874.00
670.77	923.00
671.02	897.00
671.28	870.00
671.53	888.00
671.78	898.00
672.04	900.00
672.29	869.00
672.54	872.00
672.80	896.00
673.05	900.00
673.31	864.00
673.56	908.00
673.81	932.00
674.07	897.00
674.32	898.00
674.57	892.00
674.83	898.00
675.08	910.00
675.33	874.00
675.59	878.00
675.84	911.00
676.09	882.00
676.35	889.00
676.60	900.00
676.86	901.00
677.11	911.00
677.36	871.00
677.62	888.00
677.87	930.00
678.12	946.00
678.38	885.00
678.63	881.00
678.88	912.00
679.14	924.00
679.39	858.00
679.64	884.00
679.90	882.00
680.15	907.00
680.40	897.00
680.66	866.00
680.91	888.00
681.16	894.00
681.42	861.00
681.67	872.00
681.92	892.00
682.18	946.00
682.43	876.00
682.68	865.00
682.94	881.00
683.19	886.00
683.44	853.00
683.70	887.00
683.95	905.00
684.20	913.00
684.46	872.00
684.71	895.00
684.96	908.00
685.22	896.00
685.47	888.00
685.72	890.00
685.98	912.00
686.23	858.00
686.48	874.00
686.74	903.00
686.99	920.00
687.24	887.00
687.50	868.00
687.75	874.00
688.00	881.00
688.25	901.00
688.51	889.00
688.76	887.00
689.01	871.00
689.27	887.00
689.52	850.00
689.77	870.00
690.03	866.00
690.28	878.00
690.53	873.00
690.79	899.00
691.04	916.00
691.29	898.00
691.54	826.00
691.80	890.00
692.05	898.00
692.30	902.00
692.56	873.00
692.81	892.00
693.06	874.00
693.32	870.00
693.57	871.00
693.82	911.00
694.07	921.00
694.33	900.00
694.58	865.00
694.83	890.00
695.09	884.00
695.34	908.00
695.59	875.00
695.84	877.00
696.10	913.00
696.35	923.00
696.60	836.00
696.86	854.00
697.11	900.00
697.36	900.00
697.61	860.00
697.87	884.00
698.12	889.00
698.37	891.00
698.63	864.00
698.88	866.00
699.13	899.00
699.38	897.00
699.64	857.00
699.89	886.00
700.14	878.00
700.39	888.00
700.65	879.00
700.90	906.00
701.15	900.00
701.40	910.00
701.66	856.00
701.91	874.00
702.16	881.00
702.42	876.00
702.67	842.00
702.92	860.00
703.17	882.00
703.43	886.00
703.68	864.00
703.93	898.00
704.18	919.00
704.44	874.00
704.69	853.00
704.94	902.00
705.19	885.00
705.45	906.00
705.70	894.00
705.95	858.00
706.20	887.00
706.46	893.00
706.71	872.00
706.96	867.00
707.21	872.00
707.47	872.00
707.72	872.00
707.97	891.00
708.22	898.00
708.48	925.00
708.73	861.00
708.98	854.00
709.23	880.00
709.49	888.00
709.74	850.00
709.99	852.00
710.24	873.00
710.50	875.00
710.75	857.00
711.00	902.00
711.25	913.00
711.50	885.00
711.76	852.00
712.01	855.00
712.26	847.00
712.51	875.00
712.77	866.00
713.02	868.00
713.27	867.00
713.52	874.00
713.78	865.00
714.03	893.00
714.28	873.00
714.53	893.00
714.78	870.00
715.04	906.00
715.29	901.00
715.54	903.00
715.79	861.00
716.05	897.00
716.30	891.00
716.55	893.00
716.80	871.00
717.05	892.00
717.31	886.00
717.56	897.00
717.81	875.00
718.06	873.00
718.31	862.00
718.57	908.00
718.82	896.00
719.07	907.00
719.32	869.00
719.57	897.00
719.83	860.00
720.08	885.00
720.33	871.00
720.58	878.00
720.83	843.00
721.09	914.00
721.34	891.00
721.59	909.00
721.84	871.00
722.09	890.00
722.35	887.00
722.60	878.00
722.85	859.00
723.10	888.00
723.35	880.00
723.61	904.00
723.86	884.00
724.11	873.00
724.36	885.00
724.61	891.00
724.87	887.00
725.12	878.00
725.37	874.00
725.62	858.00
725.87	846.00
726.12	862.00
726.38	856.00
726.63	892.00
726.88	864.00
727.13	897.00
727.38	894.00
727.64	901.00
727.89	874.00
728.14	875.00
728.39	873.00
728.64	898.00
728.89	863.00
729.15	893.00
729.40	904.00
729.65	906.00
729.90	866.00
730.15	882.00
730.40	885.00
730.66	882.00
730.91	845.00
731.16	871.00
731.41	891.00
731.66	890.00
731.91	865.00
732.17	901.00
732.42	917.00
732.67	893.00
732.92	864.00
733.17	892.00
733.42	877.00
733.68	877.00
733.93	857.00
734.18	878.00
734.43	876.00
734.68	881.00
734.93	866.00
735.18	880.00
735.44	901.00
735.69	894.00
735.94	842.00
736.19	883.00
736.44	893.00
736.69	929.00
736.95	874.00
737.20	880.00
737.45	900.00
737.70	886.00
737.95	866.00
738.20	874.00
738.45	905.00
738.70	913.00
738.96	882.00
739.21	894.00
739.46	902.00
739.71	907.00
739.96	881.00
740.21	909.00
740.46	977.00
740.72	945.00
740.97	881.00
741.22	900.00
741.47	875.00
741.72	893.00
741.97	858.00
742.22	880.00
742.47	883.00
742.73	882.00
742.98	852.00
743.23	855.00
743.48	866.00
743.73	908.00
743.98	875.00
744.23	870.00
744.48	888.00
744.74	874.00
744.99	855.00
745.24	904.00
745.49	882.00
745.74	896.00
745.99	851.00
746.24	876.00
746.49	869.00
746.74	897.00
747.00	893.00
747.25	889.00
747.50	851.00
747.75	860.00
748.00	828.00
748.25	851.00
748.50	876.00
748.75	884.00
749.00	884.00
749.26	905.00
749.51	904.00
749.76	922.00
750.01	879.00
750.26	897.00
750.51	912.00
750.76	908.00
751.01	863.00
751.26	861.00
751.51	901.00
751.77	913.00
752.02	880.00
752.27	864.00
752.52	893.00
752.77	905.00
753.02	878.00
753.27	889.00
753.52	879.00
753.77	873.00
754.02	872.00
754.27	878.00
754.52	865.00
754.78	893.00
755.03	878.00
755.28	885.00
755.53	909.00
755.78	888.00
756.03	860.00
756.28	886.00
756.53	900.00
756.78	903.00
757.03	879.00
757.28	894.00
757.53	901.00
757.79	884.00
758.04	854.00
758.29	898.00
758.54	911.00
758.79	910.00
759.04	850.00
759.29	858.00
759.54	868.00
759.79	877.00
760.04	868.00
760.29	871.00
760.54	868.00
760.79	884.00
761.04	840.00
761.29	866.00
761.55	874.00
761.80	896.00
762.05	844.00
762.30	879.00
762.55	894.00
762.80	905.00
763.05	896.00
763.30	909.00
763.55	910.00
763.80	897.00
764.05	846.00
764.30	887.00
764.55	916.00
764.80	893.00
765.05	872.00
765.30	899.00
765.55	908.00
765.80	892.00
766.05	836.00
766.30	882.00
766.56	889.00
766.81	904.00
767.06	886.00
767.31	889.00
767.56	863.00
767.81	880.00
768.06	871.00
768.31	894.00
768.56	886.00
768.81	932.00
769.06	869.00
769.31	870.00
769.56	878.00
769.81	902.00
770.06	850.00
770.31	866.00
770.56	890.00
770.81	874.00
771.06	828.00
771.31	891.00
771.56	888.00
771.81	878.00
772.06	843.00
772.31	896.00
772.56	904.00
772.81	907.00
773.06	875.00
773.31	886.00
773.56	888.00
773.81	854.00
774.06	843.00
774.31	888.00
774.56	885.00
774.81	900.00
775.06	875.00
775.31	918.00
775.56	905.00
775.81	873.00
776.06	852.00
776.31	874.00
776.56	885.00
776.82	900.00
777.07	851.00
777.32	870.00
777.57	896.00
777.82	936.00
778.07	861.00
778.32	852.00
778.57	886.00
778.82	919.00
779.07	873.00
779.32	877.00
779.57	850.00
779.82	877.00
780.07	857.00
780.32	877.00
780.56	886.00
780.81	918.00
781.06	858.00
781.31	874.00
781.56	904.00
781.81	910.00
782.06	859.00
782.31	889.00
782.56	880.00
782.81	914.00
783.06	861.00
783.31	873.00
783.56	877.00
783.81	918.00
784.06	876.00
784.31	873.00
784.56	860.00
784.81	920.00
785.06	892.00
785.31	894.00
785.56	860.00
785.81	840.00
786.06	844.00
786.31	875.00
786.56	867.00
786.81	879.00
787.06	891.00
787.31	884.00
787.56	881.00
787.81	872.00
788.06	850.00
788.31	903.00
788.56	880.00
788.81	910.00
789.06	878.00
789.31	890.00
789.56	893.00
789.81	892.00
790.06	858.00
790.31	905.00
790.56	877.00
790.80	873.00
791.05	860.00
791.30	851.00
791.55	864.00
791.80	880.00
792.05	872.00
792.30	864.00
792.55	872.00
792.80	882.00
793.05	880.00
793.30	869.00
793.55	892.00
793.80	899.00
794.05	855.00
794.30	874.00
794.55	864.00
794.80	900.00
795.05	842.00
795.30	863.00
795.54	859.00
795.79	904.00
796.04	861.00
796.29	893.00
796.54	894.00
796.79	921.00
797.04	870.00
797.29	905.00
797.54	911.00
797.79	897.00
798.04	888.00
798.29	869.00
798.54	860.00
798.79	869.00
799.04	842.00
799.29	890.00
799.53	892.00
799.78	870.00
800.03	851.00
800.28	856.00
800.53	874.00
800.78	928.00
801.03	871.00
801.28	891.00
801.53	885.00
801.78	907.00
802.03	878.00
802.28	897.00
802.52	905.00
802.77	907.00
803.02	890.00
803.27	914.00
803.52	850.00
803.77	884.00
804.02	889.00
804.27	910.00
804.52	898.00
804.77	912.00
805.02	883.00
805.27	898.00
805.51	882.00
805.76	900.00
806.01	865.00
806.26	872.00
806.51	858.00
806.76	894.00
807.01	874.00
807.26	859.00
807.51	920.00
807.76	882.00
808.00	850.00
808.25	887.00
808.50	909.00
808.75	877.00
809.00	843.00
809.25	894.00
809.50	887.00
809.75	914.00
810.00	886.00
810.24	860.00
810.49	835.00
810.74	851.00
810.99	858.00
811.24	900.00
811.49	889.00
811.74	894.00
811.99	847.00
812.24	897.00
812.48	876.00
812.73	859.00
812.98	838.00
813.23	871.00
813.48	880.00
813.73	877.00
813.98	827.00
814.23	874.00
814.47	877.00
814.72	877.00
814.97	850.00
815.22	893.00
815.47	866.00
815.72	869.00
815.97	854.00
816.22	869.00
816.46	870.00
816.71	894.00
816.96	871.00
817.21	878.00
817.46	875.00
817.71	896.00
817.96	867.00
818.20	863.00
818.45	844.00
818.70	876.00
818.95	844.00
819.20	861.00
819.45	875.00
819.70	890.00
819.94	851.00
820.19	877.00
820.44	875.00
820.69	909.00
820.94	879.00
821.19	885.00
821.44	924.00
821.68	944.00
821.93	898.00
822.18	909.00
822.43	911.00
822.68	901.00
822.93	857.00
823.17	881.00
823.42	905.00
823.67	883.00
823.92	866.00
824.17	873.00
824.42	873.00
824.67	900.00
824.91	879.00
825.16	883.00
825.41	880.00
825.66	896.00
825.91	855.00
826.16	875.00
826.40	880.00
826.65	888.00
826.90	848.00
827.15	872.00
827.40	866.00
827.65	915.00
827.89	820.00
828.14	849.00
828.39	886.00
828.64	896.00
828.89	853.00
829.13	868.00
829.38	861.00
829.63	877.00
829.88	862.00
830.13	852.00
830.38	855.00
830.62	869.00
830.87	854.00
831.12	885.00
831.37	914.00
831.62	928.00
831.86	869.00
832.11	860.00
832.36	852.00
832.61	906.00
832.86	867.00
833.10	878.00
833.35	880.00
833.60	917.00
833.85	868.00
834.10	882.00
834.35	902.00
834.59	908.00
834.84	862.00
835.09	886.00
835.34	867.00
835.59	874.00
835.83	871.00
836.08	882.00
836.33	883.00
836.58	900.00
836.83	866.00
837.07	904.00
837.32	900.00
837.57	902.00
837.82	866.00
838.06	874.00
838.31	903.00
838.56	908.00
838.81	859.00
839.06	894.00
839.30	882.00
839.55	897.00
839.80	856.00
840.05	889.00
840.30	902.00
840.54	909.00
840.79	855.00
841.04	875.00
841.29	880.00
841.53	885.00
841.78	865.00
842.03	850.00
842.28	852.00
842.53	865.00
842.77	862.00
843.02	889.00
843.27	889.00
843.52	897.00
843.76	873.00
844.01	897.00
844.26	881.00
844.51	896.00
844.75	864.00
845.00	861.00
845.25	890.00
845.50	900.00
845.75	870.00
845.99	890.00
846.24	862.00
846.49	901.00
846.74	857.00
846.98	846.00
847.23	855.00
847.48	898.00
847.73	852.00
847.97	893.00
848.22	927.00
848.47	917.00
848.72	858.00
848.96	869.00
849.21	908.00
849.46	875.00
849.71	853.00
849.95	885.00
850.20	868.00
850.45	872.00
850.70	834.00
850.94	886.00
851.19	876.00
851.44	874.00
851.69	852.00
851.93	888.00
852.18	892.00
852.43	888.00
852.68	874.00
852.92	893.00
853.17	933.00
853.42	920.00
853.66	882.00
853.91	903.00
854.16	865.00
854.41	925.00
854.65	873.00
854.90	873.00
855.15	887.00
855.40	896.00
855.64	874.00
855.89	877.00
856.14	885.00
856.39	880.00
856.63	866.00
856.88	874.00
857.13	875.00
857.37	882.00
857.62	858.00
857.87	860.00
858.12	868.00
858.36	898.00
858.61	823.00
858.86	860.00
859.10	898.00
859.35	888.00
859.60	858.00
859.85	849.00
860.09	847.00
860.34	895.00
860.59	876.00
860.83	894.00
861.08	886.00
861.33	913.00
861.58	853.00
861.82	859.00
862.07	869.00
862.32	872.00
862.56	859.00
862.81	872.00
863.06	881.00
863.30	870.00
863.55	865.00
863.80	877.00
864.05	885.00
864.29	879.00
864.54	877.00
864.79	896.00
865.03	881.00
865.28	899.00
865.53	877.00
865.77	842.00
866.02	894.00
866.27	908.00
866.51	881.00
866.76	868.00
867.01	878.00
867.26	908.00
867.50	863.00
867.75	853.00
868.00	885.00
868.24	904.00
868.49	859.00
868.74	869.00
868.98	864.00
869.23	901.00
869.48	879.00
869.72	889.00
869.97	889.00
870.22	901.00
870.46	865.00
870.71	888.00
870.96	901.00
871.20	911.00
871.45	856.00
871.70	884.00
871.94	901.00
872.19	897.00
872.44	876.00
872.68	877.00
872.93	887.00
873.18	908.00
873.42	863.00
873.67	889.00
873.92	902.00
874.16	890.00
874.41	874.00
874.66	885.00
874.90	890.00
875.15	924.00
875.40	884.00
875.64	881.00
875.89	890.00
876.14	897.00
876.38	876.00
876.63	873.00
876.88	896.00
877.12	894.00
877.37	854.00
877.62	884.00
877.86	873.00
878.11	885.00
878.36	859.00
878.60	878.00
878.85	883.00
879.09	886.00
879.34	858.00
879.59	881.00
879.83	898.00
880.08	924.00
880.33	883.00
880.57	894.00
880.82	904.00
881.07	890.00
881.31	873.00
881.56	867.00
881.80	879.00
882.05	894.00
882.30	842.00
882.54	890.00
882.79	920.00
883.04	931.00
883.28	887.00
883.53	873.00
883.77	898.00
884.02	905.00
884.27	844.00
884.51	857.00
884.76	866.00
885.01	897.00
885.25	848.00
885.50	905.00
885.74	881.00
885.99	908.00
886.24	876.00
886.48	881.00
886.73	906.00
886.98	913.00
887.22	899.00
887.47	882.00
887.71	898.00
887.96	890.00
888.21	881.00
888.45	871.00
888.70	869.00
888.94	909.00
889.19	860.00
889.44	854.00
889.68	885.00
889.93	914.00
890.17	876.00
890.42	868.00
890.67	897.00
890.91	966.00
891.16	879.00
891.40	845.00
891.65	861.00
891.90	911.00
892.14	838.00
892.39	876.00
892.63	876.00
892.88	916.00
893.13	877.00
893.37	864.00
893.62	875.00
893.86	909.00
894.11	864.00
894.36	888.00
894.60	874.00
894.85	876.00
895.09	857.00
895.34	898.00
895.59	882.00
895.83	878.00
896.08	846.00
896.32	848.00
896.57	869.00
896.81	879.00
897.06	870.00
897.31	881.00
897.55	898.00
897.80	881.00
898.04	843.00
898.29	866.00
898.53	879.00
898.78	910.00
899.03	878.00
899.27	868.00
899.52	889.00
899.76	912.00
900.01	868.00
900.25	874.00
900.50	885.00
900.75	900.00
900.99	868.00
901.24	946.00
901.48	897.00
901.73	882.00
901.97	841.00
902.22	869.00
902.47	901.00
902.71	884.00
902.96	854.00
903.20	863.00
903.45	896.00
903.69	889.00
903.94	880.00
904.18	867.00
904.43	878.00
904.68	909.00
904.92	848.00
905.17	868.00
905.41	881.00
905.66	899.00
905.90	899.00
906.15	885.00
906.39	884.00
906.64	890.00
906.88	843.00
907.13	854.00
907.38	892.00
907.62	923.00
907.87	867.00
908.11	898.00
908.36	865.00
908.60	874.00
908.85	837.00
909.09	870.00
909.34	870.00
909.58	899.00
909.83	870.00
910.07	867.00
910.32	932.00
910.56	941.00
910.81	867.00
911.06	901.00
911.30	895.00
911.55	892.00
911.79	842.00
912.04	860.00
912.28	860.00
912.53	901.00
912.77	878.00
913.02	869.00
913.26	866.00
913.51	874.00
913.75	848.00
914.00	860.00
914.24	877.00
914.49	891.00
914.73	855.00
914.98	904.00
915.22	906.00
915.47	904.00
915.71	866.00
915.96	869.00
916.20	876.00
916.45	849.00
916.69	852.00
916.94	874.00
917.18	881.00
917.43	879.00
917.67	839.00
917.92	838.00
918.16	886.00
918.41	909.00
918.65	862.00
918.90	862.00
919.14	858.00
919.39	878.00
919.63	858.00
919.88	860.00
920.12	892.00
920.37	911.00
920.61	858.00
920.86	896.00
921.10	892.00
921.35	880.00
921.59	858.00
921.84	881.00
922.08	898.00
922.33	918.00
922.57	856.00
922.82	857.00
923.06	872.00
923.31	890.00
923.55	857.00
923.80	868.00
924.04	867.00
924.29	896.00
924.53	853.00
924.78	860.00
925.02	856.00
925.27	883.00
925.51	859.00
925.76	891.00
926.00	887.00
926.25	887.00
926.49	863.00
926.73	894.00
926.98	885.00
927.22	881.00
927.47	875.00
927.71	873.00
927.96	895.00
928.20	904.00
928.45	870.00
928.69	916.00
928.94	905.00
929.18	883.00
929.43	876.00
929.67	886.00
929.91	893.00
930.16	906.00
930.40	841.00
930.65	849.00
930.89	885.00
931.14	902.00
931.38	876.00
931.63	886.00
931.87	893.00
932.12	897.00
932.36	842.00
932.60	866.00
932.85	900.00
933.09	879.00
933.34	847.00
933.58	890.00
933.83	863.00
934.07	891.00
934.32	865.00
934.56	886.00
934.80	921.00
935.05	945.00
935.29	859.00
935.54	888.00
935.78	897.00
936.03	897.00
936.27	839.00
936.52	845.00
936.76	874.00
937.00	890.00
937.25	868.00
937.49	883.00
937.74	894.00
937.98	900.00
938.23	843.00
938.47	841.00
938.71	853.00
938.96	877.00
939.20	853.00
939.45	848.00
939.69	885.00
939.94	913.00
940.18	848.00
940.42	884.00
940.67	885.00
940.91	885.00
941.16	874.00
941.40	871.00
941.64	876.00
941.89	891.00
942.13	870.00
942.38	884.00
942.62	957.00
942.87	920.00
943.11	875.00
943.35	852.00
943.60	876.00
943.84	936.00
944.09	889.00
944.33	900.00
944.57	903.00
944.82	873.00
945.06	876.00
945.31	892.00
945.55	884.00
945.79	912.00
946.04	866.00
946.28	866.00
946.53	883.00
946.77	901.00
947.01	850.00
947.26	896.00
947.50	883.00
947.75	893.00
947.99	870.00
948.23	886.00
948.48	877.00
948.72	889.00
948.97	871.00
949.21	881.00
949.45	898.00
949.70	911.00
949.94	871.00
950.18	903.00
950.43	902.00
950.67	891.00
950.92	862.00
951.16	858.00
951.40	863.00
951.65	866.00
951.89	866.00
952.13	892.00
952.38	889.00
952.62	897.00
952.87	862.00
953.11	898.00
953.35	898.00
953.60	894.00
953.84	819.00
954.08	836.00
954.33	887.00
954.57	897.00
954.82	884.00
955.06	873.00
955.30	873.00
955.55	886.00
955.79	845.00
956.03	860.00
956.28	860.00
956.52	878.00
956.76	874.00
957.01	875.00
957.25	884.00
957.50	891.00
957.74	857.00
957.98	865.00
958.23	896.00
958.47	893.00
958.71	865.00
958.96	884.00
959.20	907.00
959.44	894.00
959.69	849.00
959.93	865.00
960.17	895.00
960.42	900.00
960.66	878.00
960.90	884.00
961.15	881.00
961.39	893.00
961.64	846.00
961.88	846.00
962.12	887.00
962.37	897.00
962.61	859.00
962.85	848.00
963.10	873.00
963.34	878.00
963.58	862.00
963.83	867.00
964.07	865.00
964.31	883.00
964.56	894.00
964.80	882.00
965.04	888.00
965.29	884.00
965.53	845.00
965.77	854.00
966.02	851.00
966.26	863.00
966.50	836.00
966.74	878.00
966.99	913.00
967.23	888.00
967.47	866.00
967.72	873.00
967.96	881.00
968.20	881.00
968.45	849.00
968.69	869.00
968.93	877.00
969.18	884.00
969.42	893.00
969.66	891.00
969.91	876.00
970.15	918.00
970.39	851.00
970.64	874.00
970.88	901.00
971.12	906.00
971.36	860.00
971.61	858.00
971.85	878.00
972.09	881.00
972.34	860.00
972.58	870.00
972.82	881.00
973.07	899.00
973.31	842.00
973.55	876.00
973.79	912.00
974.04	930.00
974.28	888.00
974.52	879.00
974.77	861.00
975.01	894.00
975.25	865.00
975.50	887.00
975.74	912.00
975.98	906.00
976.22	869.00
976.47	861.00
976.71	891.00
976.95	893.00
977.20	886.00
977.44	875.00
977.68	881.00
977.92	903.00
978.17	868.00
978.41	867.00
978.65	894.00
978.90	874.00
979.14	884.00
979.38	885.00
979.62	869.00
979.87	857.00
980.11	848.00
980.35	876.00
980.59	880.00
980.84	890.00
981.08	860.00
981.32	864.00
981.57	897.00
981.81	875.00
982.05	849.00
982.29	838.00
982.54	855.00
982.78	881.00
983.02	859.00
983.26	872.00
983.51	908.00
983.75	905.00
983.99	852.00
984.23	883.00
984.48	897.00
984.72	914.00
984.96	841.00
985.20	861.00
985.45	943.00
985.69	904.00
985.93	858.00
986.17	903.00
986.42	891.00
986.66	886.00
986.90	816.00
987.14	837.00
987.39	869.00
987.63	867.00
987.87	845.00
988.11	851.00
988.36	889.00
988.60	896.00
988.84	885.00
989.08	849.00
989.33	886.00
989.57	914.00
989.81	858.00
990.05	850.00
990.30	858.00
990.54	866.00
990.78	868.00
991.02	857.00
991.27	866.00
991.51	889.00
991.75	859.00
991.99	881.00
992.23	877.00
992.48	860.00
992.72	853.00
992.96	850.00
993.20	859.00
993.45	878.00
993.69	899.00
993.93	855.00
994.17	883.00
994.41	883.00
994.66	842.00
994.90	862.00
995.14	909.00
995.38	887.00
995.63	861.00
995.87	876.00
996.11	902.00
996.35	896.00
996.59	852.00
996.84	870.00
997.08	885.00
997.32	875.00
997.56	874.00
997.80	850.00
998.05	865.00
998.29	862.00
998.53	848.00
998.77	886.00
999.01	899.00
999.26	899.00
999.50	860.00
999.74	855.00
999.98	877.00
1000.22	889.00
1000.47	848.00
1000.71	850.00
1000.95	896.00
1001.19	891.00
1001.43	873.00
1001.68	884.00
1001.92	873.00
1002.16	855.00
1002.40	848.00
1002.64	866.00
1002.89	879.00
1003.13	891.00
1003.37	859.00
1003.61	851.00
1003.85	868.00
1004.10	876.00
1004.34	863.00
1004.58	870.00
1004.82	902.00
1005.06	882.00
1005.30	864.00
1005.55	873.00
1005.79	880.00
1006.03	897.00
1006.27	880.00
1006.51	877.00
1006.76	896.00
1007.00	906.00
1007.24	865.00
1007.48	868.00
1007.72	889.00
1007.96	903.00
1008.21	862.00
1008.45	882.00
1008.69	879.00
1008.93	908.00
1009.17	869.00
1009.41	897.00
1009.66	905.00
1009.90	864.00
1010.14	846.00
1010.38	887.00
1010.62	897.00
1010.86	912.00
1011.10	853.00
1011.35	850.00
1011.59	866.00
1011.83	851.00
1012.07	837.00
1012.31	884.00
1012.55	888.00
1012.80	901.00
1013.04	883.00
1013.28	892.00
1013.52	872.00
1013.76	890.00
1014.00	863.00
1014.24	868.00
1014.49	881.00
1014.73	930.00
1014.97	912.00
1015.21	892.00
1015.45	926.00
1015.69	901.00
1015.93	878.00
1016.18	870.00
1016.42	896.00
1016.66	900.00
1016.90	873.00
1017.14	852.00
1017.38	867.00
1017.62	888.00
1017.87	869.00
1018.11	875.00
1018.35	884.00
1018.59	893.00
1018.83	835.00
1019.07	868.00
1019.31	909.00
1019.55	902.00
1019.80	873.00
1020.04	865.00
1020.28	864.00
1020.52	892.00
1020.76	872.00
1021.00	868.00
1021.24	868.00
1021.48	876.00
1021.73	876.00
1021.97	882.00
1022.21	884.00
1022.45	885.00
1022.69	882.00
1022.93	861.00
1023.17	898.00
1023.41	933.00
1023.65	881.00
1023.90	906.00
1024.14	892.00
1024.38	860.00
1024.62	849.00
1024.86	858.00
1025.10	896.00
1025.34	868.00
1025.58	851.00
1025.82	850.00
1026.07	891.00
1026.31	896.00
1026.55	868.00
1026.79	863.00
1027.03	879.00
1027.27	884.00
1027.51	835.00
1027.75	841.00
1027.99	876.00
1028.23	912.00
1028.47	878.00
1028.72	865.00
1028.96	879.00
1029.20	890.00
1029.44	890.00
1029.68	878.00
1029.92	869.00
1030.16	886.00
1030.40	842.00
1030.64	867.00
1030.88	871.00
1031.12	866.00
1031.37	832.00
1031.61	885.00
1031.85	921.00
1032.09	915.00
1032.33	867.00
1032.57	913.00
1032.81	881.00
1033.05	897.00
1033.29	878.00
1033.53	885.00
1033.77	938.00
1034.01	915.00
1034.25	876.00
1034.50	881.00
1034.74	878.00
1034.98	887.00
1035.22	875.00
1035.46	888.00
1035.70	924.00
1035.94	898.00
1036.18	867.00
1036.42	845.00
1036.66	857.00
1036.90	859.00
1037.14	850.00
1037.38	869.00
1037.62	885.00
1037.86	883.00
1038.10	879.00
1038.35	880.00
1038.59	907.00
1038.83	882.00
1039.07	875.00
1039.31	892.00
1039.55	880.00
1039.79	900.00
1040.03	864.00
1040.27	850.00
1040.51	898.00
1040.75	905.00
1040.99	864.00
1041.23	877.00
1041.47	893.00
1041.71	914.00
1041.95	871.00
1042.19	882.00
1042.43	925.00
1042.67	917.00
1042.91	888.00
1043.15	872.00
1043.39	914.00
1043.64	892.00
1043.88	866.00
1044.12	883.00
1044.36	931.00
1044.60	912.00
1044.84	891.00
1045.08	900.00
1045.32	893.00
1045.56	889.00
1045.80	878.00
1046.04	872.00
1046.28	915.00
1046.52	905.00
1046.76	856.00
1047.00	857.00
1047.24	895.00
1047.48	879.00
1047.72	876.00
1047.96	856.00
1048.20	883.00
1048.44	879.00
1048.68	853.00
1048.92	872.00
1049.16	899.00
1049.40	916.00
1049.64	884.00
1049.88	894.00
1050.12	909.00
1050.36	911.00
1050.60	885.00
1050.84	883.00
1051.08	875.00
1051.32	882.00
1051.56	875.00
1051.80	860.00
1052.04	890.00
1052.28	912.00
1052.52	860.00
1052.76	846.00
1053.00	875.00
1053.24	897.00
1053.48	857.00
1053.72	864.00
1053.96	893.00
1054.20	900.00
1054.44	886.00
1054.68	895.00
1054.92	899.00
1055.16	866.00
1055.40	851.00
1055.64	876.00
1055.88	894.00
1056.12	925.00
1056.36	845.00
1056.60	851.00
1056.84	902.00
1057.08	896.00
1057.32	878.00
1057.56	858.00
1057.80	872.00
1058.04	909.00
1058.28	876.00
1058.52	869.00
1058.76	896.00
1059.00	913.00
1059.24	838.00
1059.48	846.00
1059.72	913.00
1059.96	900.00
1060.20	882.00
1060.44	896.00
1060.68	903.00
1060.92	885.00
1061.16	844.00
1061.40	870.00
1061.64	887.00
1061.88	884.00
1062.11	854.00
1062.35	848.00
1062.59	871.00
1062.83	915.00
1063.07	877.00
1063.31	836.00
1063.55	868.00
1063.79	900.00
1064.03	868.00
1064.27	870.00
1064.51	898.00
1064.75	909.00
1064.99	878.00
1065.23	864.00
1065.47	859.00
1065.71	894.00
1065.95	873.00
1066.19	880.00
1066.43	901.00
1066.67	907.00
1066.91	901.00
1067.15	879.00
1067.38	873.00
1067.62	900.00
1067.86	859.00
1068.10	886.00
1068.34	925.00
1068.58	922.00
1068.82	868.00
1069.06	834.00
1069.30	892.00
1069.54	913.00
1069.78	908.00
1070.02	897.00
1070.26	929.00
1070.50	940.00
1070.74	875.00
1070.98	888.00
1071.21	903.00
1071.45	900.00
1071.69	855.00
1071.93	875.00
1072.17	894.00
1072.41	924.00
1072.65	882.00
1072.89	893.00
1073.13	893.00
1073.37	883.00
1073.61	859.00
1073.85	877.00
1074.09	874.00
1074.32	878.00
1074.56	862.00
1074.80	937.00
1075.04	1142.00
1075.28	1002.00
1075.52	871.00
1075.76	876.00
1076.00	906.00
1076.24	889.00
1076.48	883.00
1076.72	897.00
1076.96	911.00
1077.19	900.00
1077.43	859.00
1077.67	880.00
1077.91	901.00
1078.15	871.00
1078.39	858.00
1078.63	872.00
1078.87	876.00
1079.11	892.00
1079.35	863.00
1079.58	868.00
1079.82	897.00
1080.06	870.00
1080.30	842.00
1080.54	876.00
1080.78	918.00
1081.02	874.00
1081.26	866.00
1081.50	886.00
1081.74	874.00
1081.97	893.00
1082.21	860.00
1082.45	888.00
1082.69	887.00
1082.93	867.00
1083.17	875.00
1083.41	876.00
1083.65	921.00
1083.88	934.00
1084.12	888.00
1084.36	889.00
1084.60	909.00
1084.84	901.00
1085.08	858.00
1085.32	872.00
1085.56	932.00
1085.80	888.00
1086.03	865.00
1086.27	843.00
1086.51	897.00
1086.75	917.00
1086.99	863.00
1087.23	849.00
1087.47	884.00
1087.70	893.00
1087.94	869.00
1088.18	907.00
1088.42	946.00
1088.66	888.00
1088.90	842.00
1089.14	870.00
1089.38	876.00
1089.61	901.00
1089.85	864.00
1090.09	844.00
1090.33	923.00
1090.57	920.00
1090.81	841.00
1091.05	865.00
1091.28	900.00
1091.52	903.00
1091.76	864.00
1092.00	874.00
1092.24	878.00
1092.48	902.00
1092.71	865.00
1092.95	894.00
1093.19	908.00
1093.43	885.00
1093.67	857.00
1093.91	877.00
1094.15	888.00
1094.38	900.00
1094.62	855.00
1094.86	849.00
1095.10	881.00
1095.34	896.00
1095.58	880.00
1095.81	861.00
1096.05	908.00
1096.29	917.00
1096.53	850.00
1096.77	865.00
1097.01	866.00
1097.24	899.00
1097.48	852.00
1097.72	880.00
1097.96	891.00
1098.20	909.00
1098.44	856.00
1098.67	850.00
1098.91	893.00
1099.15	916.00
1099.39	854.00
1099.63	866.00
1099.86	894.00
1100.10	888.00
1100.34	875.00
1100.58	867.00
1100.82	890.00
1101.06	889.00
1101.29	862.00
1101.53	885.00
1101.77	914.00
1102.01	871.00
1102.25	865.00
1102.48	888.00
1102.72	917.00
1102.96	907.00
1103.20	844.00
1103.44	858.00
1103.67	884.00
1103.91	909.00
1104.15	865.00
1104.39	853.00
1104.63	898.00
1104.86	886.00
1105.10	852.00
1105.34	892.00
1105.58	873.00
1105.82	874.00
1106.05	869.00
1106.29	886.00
1106.53	883.00
1106.77	914.00
1107.01	863.00
1107.24	898.00
1107.48	918.00
1107.72	894.00
1107.96	827.00
1108.20	865.00
1108.43	887.00
1108.67	876.00
1108.91	858.00
1109.15	860.00
1109.39	897.00
1109.62	896.00
1109.86	850.00
1110.10	858.00
1110.34	925.00
1110.57	934.00
1110.81	877.00
1111.05	876.00
1111.29	918.00
1111.53	929.00
1111.76	882.00
1112.00	918.00
1112.24	905.00
1112.48	888.00
1112.71	845.00
1112.95	870.00
1113.19	919.00
1113.43	894.00
1113.66	836.00
1113.90	868.00
1114.14	880.00
1114.38	892.00
1114.62	844.00
1114.85	894.00
1115.09	908.00
1115.33	949.00
1115.57	886.00
1115.80	849.00
1116.04	882.00
1116.28	893.00
1116.52	860.00
1116.75	875.00
1116.99	918.00
1117.23	901.00
1117.47	884.00
1117.70	899.00
1117.94	949.00
1118.18	885.00
1118.42	871.00
1118.65	880.00
1118.89	901.00
1119.13	906.00
1119.37	859.00
1119.60	884.00
1119.84	923.00
>>>>>End Processed Spectral Data<<<<<
