SpectraSuite Data File
++++++++++++++++++++++++++++++++++++
Date: Fri Dec 06 15:46:26 CET 2024
User: student
Dark Spectrum Present: No
Reference Spectrum Present: No
Number of Sampled Component Spectra: 1
Spectrometers: HR4C155
Integration Time (usec): 100000 (HR4C155)
Spectra Averaged: 1 (HR4C155)
Boxcar Smoothing: 0 (HR4C155)
Correct for Electrical Dark: No (HR4C155)
Strobe/Lamp Enabled: No (HR4C155)
Correct for Detector Non-linearity: No (HR4C155)
Correct for Stray Light: No (HR4C155)
Number of Pixels in Processed Spectrum: 3648
>>>>>Begin Processed Spectral Data<<<<<
195.39	666.00
195.66	666.00
195.93	666.00
196.20	672.00
196.46	709.00
196.73	822.00
197.00	837.00
197.27	827.00
197.54	842.00
197.81	849.00
198.08	856.00
198.35	875.00
198.61	904.00
198.88	874.00
199.15	865.00
199.42	872.00
199.69	891.00
199.96	878.00
200.23	891.00
200.49	885.00
200.76	930.00
201.03	885.00
201.30	864.00
201.57	926.00
201.84	944.00
202.11	883.00
202.38	902.00
202.64	921.00
202.91	928.00
203.18	865.00
203.45	931.00
203.72	1010.00
203.99	964.00
204.25	921.00
204.52	903.00
204.79	925.00
205.06	928.00
205.33	884.00
205.60	895.00
205.87	934.00
206.13	925.00
206.40	902.00
206.67	886.00
206.94	929.00
207.21	931.00
207.48	915.00
207.75	899.00
208.01	932.00
208.28	940.00
208.55	897.00
208.82	916.00
209.09	916.00
209.36	938.00
209.62	909.00
209.89	917.00
210.16	928.00
210.43	972.00
210.70	893.00
210.97	906.00
211.23	917.00
211.50	938.00
211.77	906.00
212.04	909.00
212.31	897.00
212.58	933.00
212.84	926.00
213.11	919.00
213.38	890.00
213.65	917.00
213.92	905.00
214.18	916.00
214.45	962.00
214.72	935.00
214.99	889.00
215.26	915.00
215.53	907.00
215.79	937.00
216.06	946.00
216.33	919.00
216.60	893.00
216.87	938.00
217.13	858.00
217.40	881.00
217.67	924.00
217.94	963.00
218.21	904.00
218.48	939.00
218.74	1001.00
219.01	952.00
219.28	878.00
219.55	877.00
219.82	912.00
220.08	934.00
220.35	895.00
220.62	900.00
220.89	960.00
221.16	966.00
221.42	907.00
221.69	912.00
221.96	949.00
222.23	949.00
222.50	945.00
222.76	939.00
223.03	929.00
223.30	916.00
223.57	873.00
223.84	873.00
224.10	895.00
224.37	934.00
224.64	882.00
224.91	900.00
225.18	939.00
225.44	958.00
225.71	903.00
225.98	923.00
226.25	960.00
226.51	952.00
226.78	894.00
227.05	908.00
227.32	925.00
227.59	920.00
227.85	917.00
228.12	909.00
228.39	949.00
228.66	956.00
228.92	958.00
229.19	927.00
229.46	946.00
229.73	918.00
230.00	889.00
230.26	912.00
230.53	943.00
230.80	916.00
231.07	861.00
231.33	870.00
231.60	920.00
231.87	939.00
232.14	892.00
232.41	934.00
232.67	930.00
232.94	937.00
233.21	897.00
233.48	919.00
233.74	926.00
234.01	922.00
234.28	899.00
234.55	904.00
234.81	908.00
235.08	949.00
235.35	905.00
235.62	903.00
235.88	913.00
236.15	946.00
236.42	924.00
236.69	913.00
236.95	945.00
237.22	929.00
237.49	903.00
237.76	896.00
238.02	941.00
238.29	952.00
238.56	915.00
238.83	897.00
239.09	905.00
239.36	933.00
239.63	892.00
239.90	915.00
240.16	967.00
240.43	975.00
240.70	905.00
240.97	911.00
241.23	911.00
241.50	926.00
241.77	912.00
242.04	913.00
242.30	894.00
242.57	913.00
242.84	878.00
243.11	909.00
243.37	889.00
243.64	937.00
243.91	900.00
244.18	912.00
244.44	889.00
244.71	881.00
244.98	907.00
245.24	904.00
245.51	925.00
245.78	964.00
246.05	899.00
246.31	910.00
246.58	949.00
246.85	926.00
247.12	900.00
247.38	929.00
247.65	923.00
247.92	938.00
248.18	899.00
248.45	908.00
248.72	906.00
248.99	925.00
249.25	864.00
249.52	899.00
249.79	935.00
250.05	933.00
250.32	886.00
250.59	893.00
250.86	915.00
251.12	917.00
251.39	890.00
251.66	918.00
251.92	940.00
252.19	948.00
252.46	884.00
252.73	918.00
252.99	949.00
253.26	942.00
253.53	888.00
253.79	915.00
254.06	913.00
254.33	902.00
254.60	877.00
254.86	887.00
255.13	952.00
255.40	973.00
255.66	901.00
255.93	910.00
256.20	929.00
256.46	935.00
256.73	901.00
257.00	914.00
257.26	924.00
257.53	941.00
257.80	936.00
258.07	926.00
258.33	969.00
258.60	937.00
258.87	905.00
259.13	939.00
259.40	920.00
259.67	957.00
259.93	899.00
260.20	914.00
260.47	939.00
260.73	901.00
261.00	882.00
261.27	909.00
261.53	950.00
261.80	933.00
262.07	883.00
262.34	914.00
262.60	906.00
262.87	935.00
263.14	909.00
263.40	937.00
263.67	915.00
263.94	936.00
264.20	896.00
264.47	887.00
264.74	906.00
265.00	914.00
265.27	878.00
265.54	897.00
265.80	938.00
266.07	956.00
266.34	893.00
266.60	902.00
266.87	921.00
267.14	927.00
267.40	882.00
267.67	889.00
267.94	932.00
268.20	937.00
268.47	885.00
268.74	895.00
269.00	908.00
269.27	892.00
269.54	870.00
269.80	883.00
270.07	942.00
270.33	913.00
270.60	877.00
270.87	918.00
271.13	902.00
271.40	917.00
271.67	867.00
271.93	863.00
272.20	917.00
272.47	891.00
272.73	850.00
273.00	892.00
273.27	927.00
273.53	968.00
273.80	895.00
274.07	870.00
274.33	881.00
274.60	923.00
274.86	904.00
275.13	917.00
275.40	909.00
275.66	966.00
275.93	899.00
276.20	894.00
276.46	901.00
276.73	893.00
277.00	881.00
277.26	922.00
277.53	937.00
277.79	920.00
278.06	885.00
278.33	941.00
278.59	927.00
278.86	904.00
279.13	884.00
279.39	915.00
279.66	938.00
279.93	939.00
280.19	884.00
280.46	897.00
280.72	908.00
280.99	909.00
281.26	881.00
281.52	886.00
281.79	917.00
282.05	927.00
282.32	901.00
282.59	901.00
282.85	944.00
283.12	936.00
283.39	901.00
283.65	907.00
283.92	907.00
284.18	921.00
284.45	897.00
284.72	909.00
284.98	904.00
285.25	914.00
285.51	922.00
285.78	902.00
286.05	894.00
286.31	909.00
286.58	869.00
286.84	890.00
287.11	902.00
287.38	924.00
287.64	909.00
287.91	891.00
288.17	927.00
288.44	929.00
288.71	864.00
288.97	896.00
289.24	944.00
289.50	926.00
289.77	900.00
290.04	899.00
290.30	921.00
290.57	942.00
290.83	884.00
291.10	890.00
291.37	916.00
291.63	910.00
291.90	922.00
292.16	907.00
292.43	915.00
292.70	907.00
292.96	859.00
293.23	867.00
293.49	888.00
293.76	913.00
294.02	875.00
294.29	894.00
294.56	921.00
294.82	931.00
295.09	877.00
295.35	872.00
295.62	941.00
295.89	951.00
296.15	877.00
296.42	875.00
296.68	900.00
296.95	918.00
297.21	922.00
297.48	917.00
297.75	912.00
298.01	942.00
298.28	885.00
298.54	922.00
298.81	937.00
299.07	928.00
299.34	872.00
299.61	893.00
299.87	925.00
300.14	923.00
300.40	913.00
300.67	893.00
300.93	935.00
301.20	967.00
301.46	892.00
301.73	904.00
302.00	942.00
302.26	916.00
302.53	927.00
302.79	913.00
303.06	933.00
303.32	956.00
303.59	886.00
303.85	893.00
304.12	908.00
304.39	938.00
304.65	899.00
304.92	913.00
305.18	917.00
305.45	930.00
305.71	897.00
305.98	907.00
306.24	907.00
306.51	900.00
306.77	889.00
307.04	894.00
307.31	923.00
307.57	924.00
307.84	869.00
308.10	907.00
308.37	909.00
308.63	900.00
308.90	877.00
309.16	907.00
309.43	921.00
309.69	914.00
309.96	914.00
310.22	903.00
310.49	908.00
310.76	930.00
311.02	866.00
311.29	898.00
311.55	918.00
311.82	917.00
312.08	905.00
312.35	902.00
312.61	933.00
312.88	935.00
313.14	897.00
313.41	883.00
313.67	876.00
313.94	939.00
314.20	906.00
314.47	911.00
314.73	900.00
315.00	896.00
315.26	877.00
315.53	920.00
315.79	917.00
316.06	906.00
316.32	885.00
316.59	901.00
316.85	912.00
317.12	932.00
317.39	866.00
317.65	900.00
317.92	913.00
318.18	916.00
318.45	901.00
318.71	946.00
318.98	935.00
319.24	923.00
319.51	905.00
319.77	897.00
320.04	917.00
320.30	914.00
320.57	895.00
320.83	884.00
321.10	886.00
321.36	915.00
321.63	870.00
321.89	883.00
322.16	945.00
322.42	932.00
322.69	867.00
322.95	875.00
323.22	910.00
323.48	931.00
323.75	877.00
324.01	903.00
324.28	913.00
324.54	929.00
324.80	904.00
325.07	911.00
325.33	914.00
325.60	901.00
325.86	874.00
326.13	896.00
326.39	913.00
326.66	897.00
326.92	857.00
327.19	880.00
327.45	942.00
327.72	954.00
327.98	878.00
328.25	878.00
328.51	907.00
328.78	922.00
329.04	887.00
329.31	902.00
329.57	914.00
329.84	919.00
330.10	882.00
330.37	909.00
330.63	928.00
330.89	937.00
331.16	884.00
331.42	873.00
331.69	925.00
331.95	902.00
332.22	900.00
332.48	933.00
332.75	924.00
333.01	889.00
333.28	877.00
333.54	892.00
333.81	916.00
334.07	934.00
334.34	886.00
334.60	897.00
334.86	937.00
335.13	951.00
335.39	915.00
335.66	885.00
335.92	936.00
336.19	942.00
336.45	856.00
336.72	890.00
336.98	886.00
337.24	929.00
337.51	870.00
337.77	880.00
338.04	909.00
338.30	922.00
338.57	875.00
338.83	914.00
339.10	927.00
339.36	909.00
339.63	890.00
339.89	883.00
340.15	890.00
340.42	934.00
340.68	922.00
340.95	913.00
341.21	918.00
341.48	913.00
341.74	878.00
342.00	879.00
342.27	914.00
342.53	916.00
342.80	891.00
343.06	876.00
343.33	895.00
343.59	949.00
343.85	895.00
344.12	899.00
344.38	948.00
344.65	944.00
344.91	872.00
345.18	886.00
345.44	898.00
345.70	886.00
345.97	848.00
346.23	881.00
346.50	903.00
346.76	911.00
347.03	900.00
347.29	903.00
347.55	893.00
347.82	908.00
348.08	862.00
348.35	894.00
348.61	947.00
348.87	914.00
349.14	865.00
349.40	877.00
349.67	921.00
349.93	900.00
350.20	897.00
350.46	899.00
350.72	918.00
350.99	907.00
351.25	886.00
351.52	887.00
351.78	911.00
352.04	920.00
352.31	889.00
352.57	887.00
352.84	895.00
353.10	903.00
353.36	885.00
353.63	881.00
353.89	898.00
354.16	905.00
354.42	898.00
354.68	904.00
354.95	921.00
355.21	922.00
355.48	873.00
355.74	905.00
356.00	944.00
356.27	936.00
356.53	884.00
356.80	884.00
357.06	922.00
357.32	945.00
357.59	919.00
357.85	908.00
358.11	956.00
358.38	931.00
358.64	899.00
358.91	896.00
359.17	908.00
359.43	939.00
359.70	919.00
359.96	900.00
360.22	938.00
360.49	908.00
360.75	889.00
361.02	871.00
361.28	896.00
361.54	924.00
361.81	891.00
362.07	893.00
362.33	902.00
362.60	904.00
362.86	890.00
363.13	918.00
363.39	928.00
363.65	933.00
363.92	855.00
364.18	859.00
364.44	913.00
364.71	929.00
364.97	877.00
365.24	894.00
365.50	917.00
365.76	930.00
366.03	898.00
366.29	920.00
366.55	934.00
366.82	896.00
367.08	872.00
367.34	919.00
367.61	946.00
367.87	932.00
368.13	899.00
368.40	898.00
368.66	961.00
368.93	930.00
369.19	872.00
369.45	880.00
369.72	915.00
369.98	903.00
370.24	866.00
370.51	875.00
370.77	911.00
371.03	910.00
371.30	880.00
371.56	913.00
371.82	913.00
372.09	926.00
372.35	908.00
372.61	893.00
372.88	907.00
373.14	903.00
373.40	880.00
373.67	890.00
373.93	911.00
374.19	935.00
374.46	886.00
374.72	877.00
374.98	892.00
375.25	913.00
375.51	903.00
375.77	939.00
376.04	937.00
376.30	920.00
376.56	876.00
376.83	906.00
377.09	926.00
377.35	922.00
377.62	883.00
377.88	894.00
378.14	895.00
378.41	927.00
378.67	903.00
378.93	898.00
379.20	916.00
379.46	887.00
379.72	873.00
379.99	883.00
380.25	882.00
380.51	866.00
380.77	865.00
381.04	897.00
381.30	938.00
381.56	931.00
381.83	897.00
382.09	892.00
382.35	913.00
382.62	941.00
382.88	913.00
383.14	890.00
383.41	910.00
383.67	905.00
383.93	916.00
384.20	904.00
384.46	923.00
384.72	943.00
384.98	880.00
385.25	907.00
385.51	922.00
385.77	925.00
386.04	888.00
386.30	869.00
386.56	934.00
386.82	969.00
387.09	905.00
387.35	905.00
387.61	978.00
387.88	925.00
388.14	892.00
388.40	894.00
388.67	917.00
388.93	910.00
389.19	905.00
389.45	893.00
389.72	907.00
389.98	937.00
390.24	897.00
390.51	889.00
390.77	922.00
391.03	941.00
391.29	885.00
391.56	905.00
391.82	913.00
392.08	941.00
392.35	886.00
392.61	890.00
392.87	919.00
393.13	922.00
393.40	877.00
393.66	891.00
393.92	930.00
394.18	926.00
394.45	863.00
394.71	876.00
394.97	899.00
395.24	888.00
395.50	875.00
395.76	917.00
396.02	908.00
396.29	897.00
396.55	860.00
396.81	847.00
397.07	891.00
397.34	887.00
397.60	871.00
397.86	868.00
398.12	896.00
398.39	941.00
398.65	888.00
398.91	889.00
399.17	905.00
399.44	860.00
399.70	816.00
399.96	860.00
400.22	899.00
400.49	918.00
400.75	899.00
401.01	891.00
401.27	900.00
401.54	930.00
401.80	886.00
402.06	874.00
402.32	924.00
402.59	907.00
402.85	887.00
403.11	893.00
403.37	886.00
403.64	934.00
403.90	895.00
404.16	885.00
404.42	898.00
404.69	903.00
404.95	879.00
405.21	853.00
405.47	886.00
405.74	918.00
406.00	886.00
406.26	878.00
406.52	903.00
406.79	922.00
407.05	883.00
407.31	894.00
407.57	873.00
407.83	911.00
408.10	856.00
408.36	872.00
408.62	915.00
408.88	917.00
409.15	865.00
409.41	858.00
409.67	858.00
409.93	928.00
410.20	881.00
410.46	881.00
410.72	888.00
410.98	919.00
411.24	896.00
411.51	902.00
411.77	885.00
412.03	905.00
412.29	910.00
412.55	917.00
412.82	893.00
413.08	904.00
413.34	913.00
413.60	904.00
413.87	903.00
414.13	907.00
414.39	857.00
414.65	894.00
414.91	907.00
415.18	891.00
415.44	862.00
415.70	869.00
415.96	901.00
416.22	922.00
416.49	882.00
416.75	884.00
417.01	900.00
417.27	892.00
417.53	897.00
417.80	915.00
418.06	910.00
418.32	934.00
418.58	862.00
418.84	856.00
419.11	885.00
419.37	913.00
419.63	888.00
419.89	881.00
420.15	917.00
420.42	909.00
420.68	865.00
420.94	883.00
421.20	884.00
421.46	913.00
421.72	907.00
421.99	895.00
422.25	873.00
422.51	904.00
422.77	893.00
423.03	895.00
423.30	900.00
423.56	937.00
423.82	914.00
424.08	896.00
424.34	917.00
424.60	929.00
424.87	884.00
425.13	893.00
425.39	895.00
425.65	896.00
425.91	857.00
426.18	902.00
426.44	914.00
426.70	885.00
426.96	847.00
427.22	868.00
427.48	893.00
427.75	907.00
428.01	865.00
428.27	899.00
428.53	931.00
428.79	897.00
429.05	853.00
429.32	886.00
429.58	952.00
429.84	901.00
430.10	892.00
430.36	909.00
430.62	920.00
430.88	919.00
431.15	899.00
431.41	902.00
431.67	920.00
431.93	891.00
432.19	841.00
432.45	887.00
432.72	892.00
432.98	912.00
433.24	916.00
433.50	976.00
433.76	894.00
434.02	886.00
434.28	862.00
434.55	896.00
434.81	913.00
435.07	931.00
435.33	866.00
435.59	868.00
435.85	897.00
436.11	913.00
436.38	861.00
436.64	885.00
436.90	899.00
437.16	888.00
437.42	872.00
437.68	870.00
437.94	920.00
438.21	941.00
438.47	902.00
438.73	903.00
438.99	906.00
439.25	917.00
439.51	890.00
439.77	892.00
440.03	897.00
440.30	915.00
440.56	882.00
440.82	915.00
441.08	905.00
441.34	906.00
441.60	874.00
441.86	882.00
442.12	924.00
442.39	914.00
442.65	881.00
442.91	876.00
443.17	887.00
443.43	910.00
443.69	916.00
443.95	858.00
444.21	884.00
444.47	910.00
444.74	856.00
445.00	884.00
445.26	891.00
445.52	890.00
445.78	877.00
446.04	878.00
446.30	921.00
446.56	913.00
446.82	864.00
447.09	876.00
447.35	903.00
447.61	924.00
447.87	889.00
448.13	899.00
448.39	935.00
448.65	930.00
448.91	885.00
449.17	869.00
449.43	882.00
449.70	878.00
449.96	852.00
450.22	859.00
450.48	893.00
450.74	936.00
451.00	890.00
451.26	880.00
451.52	905.00
451.78	899.00
452.04	876.00
452.31	912.00
452.57	912.00
452.83	887.00
453.09	865.00
453.35	881.00
453.61	892.00
453.87	914.00
454.13	912.00
454.39	922.00
454.65	959.00
454.91	945.00
455.17	869.00
455.44	889.00
455.70	903.00
455.96	897.00
456.22	858.00
456.48	875.00
456.74	910.00
457.00	870.00
457.26	832.00
457.52	864.00
457.78	879.00
458.04	891.00
458.30	861.00
458.56	880.00
458.82	902.00
459.09	885.00
459.35	846.00
459.61	864.00
459.87	912.00
460.13	929.00
460.39	885.00
460.65	868.00
460.91	931.00
461.17	897.00
461.43	862.00
461.69	872.00
461.95	895.00
462.21	897.00
462.47	891.00
462.73	923.00
462.99	947.00
463.26	926.00
463.52	875.00
463.78	856.00
464.04	866.00
464.30	896.00
464.56	866.00
464.82	883.00
465.08	919.00
465.34	921.00
465.60	883.00
465.86	874.00
466.12	891.00
466.38	880.00
466.64	863.00
466.90	876.00
467.16	912.00
467.42	918.00
467.68	872.00
467.94	900.00
468.20	926.00
468.46	895.00
468.72	887.00
468.98	882.00
469.25	903.00
469.51	868.00
469.77	899.00
470.03	906.00
470.29	904.00
470.55	902.00
470.81	875.00
471.07	892.00
471.33	907.00
471.59	917.00
471.85	888.00
472.11	907.00
472.37	911.00
472.63	900.00
472.89	908.00
473.15	891.00
473.41	913.00
473.67	886.00
473.93	854.00
474.19	869.00
474.45	874.00
474.71	911.00
474.97	878.00
475.23	870.00
475.49	896.00
475.75	873.00
476.01	865.00
476.27	893.00
476.53	932.00
476.79	914.00
477.05	876.00
477.31	884.00
477.57	923.00
477.83	906.00
478.09	867.00
478.35	905.00
478.61	939.00
478.87	908.00
479.13	867.00
479.39	913.00
479.65	930.00
479.91	929.00
480.17	917.00
480.43	916.00
480.69	897.00
480.95	901.00
481.21	866.00
481.47	886.00
481.73	897.00
481.99	885.00
482.25	861.00
482.51	855.00
482.77	909.00
483.03	900.00
483.29	909.00
483.55	892.00
483.81	919.00
484.07	910.00
484.33	866.00
484.59	880.00
484.85	913.00
485.11	897.00
485.37	890.00
485.63	893.00
485.89	888.00
486.15	885.00
486.41	848.00
486.67	883.00
486.93	904.00
487.19	887.00
487.45	877.00
487.71	882.00
487.97	908.00
488.23	915.00
488.49	870.00
488.75	857.00
489.01	894.00
489.27	925.00
489.53	891.00
489.79	884.00
490.05	877.00
490.31	902.00
490.57	900.00
490.83	929.00
491.08	899.00
491.34	873.00
491.60	862.00
491.86	891.00
492.12	931.00
492.38	921.00
492.64	863.00
492.90	870.00
493.16	912.00
493.42	877.00
493.68	852.00
493.94	899.00
494.20	879.00
494.46	894.00
494.72	878.00
494.98	873.00
495.24	888.00
495.50	910.00
495.76	914.00
496.02	903.00
496.28	927.00
496.54	908.00
496.80	881.00
497.05	861.00
497.31	905.00
497.57	918.00
497.83	854.00
498.09	893.00
498.35	926.00
498.61	902.00
498.87	878.00
499.13	881.00
499.39	891.00
499.65	887.00
499.91	876.00
500.17	861.00
500.43	962.00
500.69	979.00
500.95	866.00
501.20	894.00
501.46	920.00
501.72	905.00
501.98	913.00
502.24	908.00
502.50	930.00
502.76	884.00
503.02	873.00
503.28	905.00
503.54	958.00
503.80	957.00
504.06	906.00
504.32	921.00
504.58	919.00
504.83	893.00
505.09	865.00
505.35	894.00
505.61	881.00
505.87	886.00
506.13	885.00
506.39	878.00
506.65	909.00
506.91	946.00
507.17	884.00
507.43	878.00
507.68	891.00
507.94	914.00
508.20	868.00
508.46	869.00
508.72	923.00
508.98	920.00
509.24	858.00
509.50	893.00
509.76	892.00
510.02	893.00
510.28	867.00
510.53	880.00
510.79	913.00
511.05	909.00
511.31	875.00
511.57	881.00
511.83	901.00
512.09	913.00
512.35	877.00
512.61	889.00
512.87	909.00
513.12	927.00
513.38	876.00
513.64	909.00
513.90	909.00
514.16	929.00
514.42	890.00
514.68	886.00
514.94	915.00
515.20	924.00
515.45	873.00
515.71	884.00
515.97	901.00
516.23	893.00
516.49	880.00
516.75	885.00
517.01	901.00
517.27	898.00
517.53	870.00
517.78	879.00
518.04	906.00
518.30	908.00
518.56	858.00
518.82	899.00
519.08	929.00
519.34	881.00
519.60	882.00
519.85	887.00
520.11	873.00
520.37	894.00
520.63	874.00
520.89	880.00
521.15	901.00
521.41	884.00
521.66	864.00
521.92	871.00
522.18	900.00
522.44	916.00
522.70	887.00
522.96	863.00
523.22	906.00
523.48	896.00
523.73	884.00
523.99	881.00
524.25	944.00
524.51	928.00
524.77	868.00
525.03	865.00
525.29	886.00
525.54	907.00
525.80	890.00
526.06	899.00
526.32	902.00
526.58	883.00
526.84	860.00
527.09	857.00
527.35	871.00
527.61	881.00
527.87	869.00
528.13	917.00
528.39	893.00
528.65	899.00
528.90	847.00
529.16	877.00
529.42	873.00
529.68	893.00
529.94	868.00
530.20	879.00
530.45	881.00
530.71	891.00
530.97	853.00
531.23	871.00
531.49	889.00
531.75	875.00
532.00	881.00
532.26	872.00
532.52	908.00
532.78	902.00
533.04	856.00
533.30	875.00
533.55	906.00
533.81	890.00
534.07	855.00
534.33	874.00
534.59	926.00
534.85	906.00
535.10	871.00
535.36	878.00
535.62	904.00
535.88	889.00
536.14	851.00
536.39	868.00
536.65	917.00
536.91	931.00
537.17	865.00
537.43	879.00
537.69	930.00
537.94	917.00
538.20	869.00
538.46	888.00
538.72	904.00
538.98	899.00
539.23	855.00
539.49	847.00
539.75	924.00
540.01	900.00
540.27	871.00
540.52	913.00
540.78	908.00
541.04	913.00
541.30	855.00
541.56	842.00
541.81	921.00
542.07	978.00
542.33	892.00
542.59	897.00
542.85	907.00
543.10	912.00
543.36	862.00
543.62	903.00
543.88	907.00
544.14	884.00
544.39	865.00
544.65	880.00
544.91	917.00
545.17	916.00
545.43	869.00
545.68	871.00
545.94	896.00
546.20	925.00
546.46	874.00
546.71	860.00
546.97	904.00
547.23	910.00
547.49	887.00
547.75	878.00
548.00	899.00
548.26	926.00
548.52	873.00
548.78	855.00
549.03	875.00
549.29	872.00
549.55	863.00
549.81	896.00
550.07	908.00
550.32	899.00
550.58	862.00
550.84	891.00
551.10	905.00
551.35	900.00
551.61	863.00
551.87	906.00
552.13	912.00
552.39	893.00
552.64	850.00
552.90	888.00
553.16	902.00
553.42	896.00
553.67	866.00
553.93	881.00
554.19	925.00
554.45	941.00
554.70	897.00
554.96	857.00
555.22	884.00
555.48	917.00
555.73	878.00
555.99	886.00
556.25	920.00
556.51	914.00
556.76	882.00
557.02	885.00
557.28	908.00
557.54	870.00
557.79	854.00
558.05	893.00
558.31	889.00
558.57	903.00
558.82	861.00
559.08	840.00
559.34	856.00
559.60	911.00
559.85	872.00
560.11	882.00
560.37	901.00
560.63	886.00
560.88	858.00
561.14	861.00
561.40	894.00
561.66	882.00
561.91	874.00
562.17	885.00
562.43	898.00
562.68	928.00
562.94	900.00
563.20	896.00
563.46	914.00
563.71	920.00
563.97	856.00
564.23	890.00
564.49	913.00
564.74	899.00
565.00	858.00
565.26	882.00
565.51	903.00
565.77	885.00
566.03	859.00
566.29	878.00
566.54	853.00
566.80	886.00
567.06	869.00
567.31	889.00
567.57	918.00
567.83	899.00
568.09	870.00
568.34	869.00
568.60	886.00
568.86	911.00
569.11	892.00
569.37	875.00
569.63	907.00
569.89	906.00
570.14	837.00
570.40	877.00
570.66	887.00
570.91	887.00
571.17	869.00
571.43	893.00
571.69	908.00
571.94	917.00
572.20	852.00
572.46	877.00
572.71	914.00
572.97	897.00
573.23	866.00
573.48	869.00
573.74	898.00
574.00	918.00
574.26	869.00
574.51	880.00
574.77	919.00
575.03	904.00
575.28	862.00
575.54	861.00
575.80	876.00
576.05	896.00
576.31	864.00
576.57	860.00
576.82	887.00
577.08	884.00
577.34	856.00
577.59	877.00
577.85	912.00
578.11	876.00
578.37	858.00
578.62	868.00
578.88	910.00
579.14	930.00
579.39	884.00
579.65	878.00
579.91	893.00
580.16	902.00
580.42	869.00
580.68	881.00
580.93	904.00
581.19	873.00
581.45	846.00
581.70	894.00
581.96	915.00
582.22	917.00
582.47	872.00
582.73	888.00
582.99	926.00
583.24	900.00
583.50	846.00
583.76	877.00
584.01	898.00
584.27	920.00
584.53	874.00
584.78	891.00
585.04	876.00
585.30	901.00
585.55	879.00
585.81	867.00
586.07	909.00
586.32	912.00
586.58	877.00
586.83	885.00
587.09	901.00
587.35	890.00
587.60	851.00
587.86	873.00
588.12	876.00
588.37	902.00
588.63	877.00
588.89	901.00
589.14	919.00
589.40	914.00
589.66	867.00
589.91	881.00
590.17	890.00
590.43	852.00
590.68	856.00
590.94	864.00
591.19	909.00
591.45	914.00
591.71	876.00
591.96	880.00
592.22	890.00
592.48	911.00
592.73	859.00
592.99	876.00
593.25	905.00
593.50	908.00
593.76	861.00
594.01	867.00
594.27	890.00
594.53	903.00
594.78	862.00
595.04	860.00
595.30	886.00
595.55	900.00
595.81	849.00
596.06	881.00
596.32	917.00
596.58	916.00
596.83	873.00
597.09	901.00
597.35	890.00
597.60	870.00
597.86	848.00
598.11	881.00
598.37	909.00
598.63	911.00
598.88	863.00
599.14	869.00
599.39	922.00
599.65	895.00
599.91	836.00
600.16	861.00
600.42	915.00
600.67	927.00
600.93	875.00
601.19	899.00
601.44	940.00
601.70	912.00
601.95	868.00
602.21	888.00
602.47	886.00
602.72	896.00
602.98	859.00
603.23	893.00
603.49	912.00
603.75	905.00
604.00	878.00
604.26	883.00
604.51	870.00
604.77	901.00
605.03	862.00
605.28	867.00
605.54	920.00
605.79	931.00
606.05	872.00
606.31	868.00
606.56	903.00
606.82	918.00
607.07	887.00
607.33	895.00
607.59	923.00
607.84	882.00
608.10	856.00
608.35	878.00
608.61	912.00
608.86	910.00
609.12	887.00
609.38	915.00
609.63	935.00
609.89	910.00
610.14	861.00
610.40	874.00
610.65	898.00
610.91	922.00
611.17	890.00
611.42	901.00
611.68	934.00
611.93	947.00
612.19	909.00
612.44	927.00
612.70	937.00
612.96	883.00
613.21	866.00
613.47	869.00
613.72	898.00
613.98	929.00
614.23	908.00
614.49	902.00
614.75	939.00
615.00	914.00
615.26	905.00
615.51	886.00
615.77	918.00
616.02	932.00
616.28	891.00
616.53	905.00
616.79	920.00
617.05	893.00
617.30	892.00
617.56	913.00
617.81	950.00
618.07	924.00
618.32	885.00
618.58	936.00
618.83	957.00
619.09	963.00
619.34	914.00
619.60	901.00
619.86	931.00
620.11	956.00
620.37	943.00
620.62	938.00
620.88	965.00
621.13	952.00
621.39	951.00
621.64	935.00
621.90	979.00
622.15	956.00
622.41	928.00
622.66	956.00
622.92	982.00
623.18	964.00
623.43	918.00
623.69	928.00
623.94	978.00
624.20	988.00
624.45	953.00
624.71	974.00
624.96	975.00
625.22	1008.00
625.47	975.00
625.73	989.00
625.98	1022.00
626.24	1023.00
626.49	973.00
626.75	986.00
627.00	1029.00
627.26	1027.00
627.51	992.00
627.77	1018.00
628.02	1052.00
628.28	1061.00
628.53	1024.00
628.79	1055.00
629.05	1066.00
629.30	1047.00
629.56	1037.00
629.81	1059.00
630.07	1067.00
630.32	1072.00
630.58	1067.00
630.83	1076.00
631.09	1095.00
631.34	1072.00
631.60	1042.00
631.85	1058.00
632.11	1056.00
632.36	1085.00
632.62	1057.00
632.87	1114.00
633.13	1123.00
633.38	1122.00
633.64	1099.00
633.89	1135.00
634.15	1188.00
634.40	1224.00
634.66	1150.00
634.91	1136.00
635.17	1183.00
635.42	1233.00
635.68	1173.00
635.93	1161.00
636.18	1225.00
636.44	1208.00
636.69	1190.00
636.95	1163.00
637.20	1214.00
637.46	1228.00
637.71	1218.00
637.97	1220.00
638.22	1230.00
638.48	1239.00
638.73	1213.00
638.99	1188.00
639.24	1232.00
639.50	1241.00
639.75	1224.00
640.01	1246.00
640.26	1276.00
640.52	1275.00
640.77	1182.00
641.03	1219.00
641.28	1272.00
641.54	1261.00
641.79	1207.00
642.04	1239.00
642.30	1300.00
642.55	1272.00
642.81	1231.00
643.06	1204.00
643.32	1259.00
643.57	1284.00
643.83	1221.00
644.08	1184.00
644.34	1213.00
644.59	1224.00
644.85	1154.00
645.10	1176.00
645.35	1177.00
645.61	1169.00
645.86	1123.00
646.12	1132.00
646.37	1156.00
646.63	1148.00
646.88	1090.00
647.14	1129.00
647.39	1139.00
647.65	1152.00
647.90	1077.00
648.15	1098.00
648.41	1101.00
648.66	1109.00
648.92	1055.00
649.17	1064.00
649.43	1056.00
649.68	1057.00
649.94	1030.00
650.19	1014.00
650.44	1034.00
650.70	1021.00
650.95	965.00
651.21	979.00
651.46	1020.00
651.72	1018.00
651.97	981.00
652.23	963.00
652.48	981.00
652.73	993.00
652.99	930.00
653.24	952.00
653.50	967.00
653.75	943.00
654.01	930.00
654.26	955.00
654.51	942.00
654.77	980.00
655.02	939.00
655.28	921.00
655.53	918.00
655.79	932.00
656.04	927.00
656.29	920.00
656.55	909.00
656.80	942.00
657.06	906.00
657.31	908.00
657.56	906.00
657.82	909.00
658.07	890.00
658.33	909.00
658.58	911.00
658.84	930.00
659.09	887.00
659.34	903.00
659.60	904.00
659.85	900.00
660.11	896.00
660.36	889.00
660.61	896.00
660.87	887.00
661.12	860.00
661.38	891.00
661.63	909.00
661.88	928.00
662.14	915.00
662.39	890.00
662.65	937.00
662.90	958.00
663.15	869.00
663.41	893.00
663.66	923.00
663.92	946.00
664.17	865.00
664.42	901.00
664.68	910.00
664.93	911.00
665.19	866.00
665.44	870.00
665.69	875.00
665.95	886.00
666.20	852.00
666.45	884.00
666.71	902.00
666.96	905.00
667.22	860.00
667.47	870.00
667.72	884.00
667.98	888.00
668.23	857.00
668.49	894.00
668.74	920.00
668.99	908.00
669.25	874.00
669.50	879.00
669.75	878.00
670.01	887.00
670.26	844.00
670.52	871.00
670.77	911.00
671.02	875.00
671.28	851.00
671.53	881.00
671.78	904.00
672.04	912.00
672.29	871.00
672.54	876.00
672.80	898.00
673.05	900.00
673.31	865.00
673.56	912.00
673.81	940.00
674.07	885.00
674.32	855.00
674.57	882.00
674.83	907.00
675.08	916.00
675.33	891.00
675.59	898.00
675.84	931.00
676.09	905.00
676.35	876.00
676.60	889.00
676.86	879.00
677.11	928.00
677.36	883.00
677.62	898.00
677.87	923.00
678.12	942.00
678.38	867.00
678.63	881.00
678.88	916.00
679.14	927.00
679.39	857.00
679.64	888.00
679.90	887.00
680.15	915.00
680.40	898.00
680.66	892.00
680.91	909.00
681.16	910.00
681.42	866.00
681.67	874.00
681.92	895.00
682.18	927.00
682.43	866.00
682.68	869.00
682.94	874.00
683.19	862.00
683.44	856.00
683.70	888.00
683.95	891.00
684.20	896.00
684.46	862.00
684.71	885.00
684.96	888.00
685.22	891.00
685.47	859.00
685.72	878.00
685.98	907.00
686.23	853.00
686.48	875.00
686.74	899.00
686.99	922.00
687.24	906.00
687.50	873.00
687.75	857.00
688.00	876.00
688.25	892.00
688.51	880.00
688.76	906.00
689.01	876.00
689.27	884.00
689.52	842.00
689.77	876.00
690.03	866.00
690.28	883.00
690.53	865.00
690.79	885.00
691.04	899.00
691.29	906.00
691.54	845.00
691.80	864.00
692.05	880.00
692.30	884.00
692.56	872.00
692.81	898.00
693.06	875.00
693.32	860.00
693.57	850.00
693.82	914.00
694.07	902.00
694.33	887.00
694.58	848.00
694.83	893.00
695.09	857.00
695.34	906.00
695.59	895.00
695.84	888.00
696.10	909.00
696.35	902.00
696.60	843.00
696.86	863.00
697.11	908.00
697.36	902.00
697.61	843.00
697.87	865.00
698.12	876.00
698.37	886.00
698.63	881.00
698.88	855.00
699.13	892.00
699.38	885.00
699.64	861.00
699.89	878.00
700.14	871.00
700.39	873.00
700.65	874.00
700.90	901.00
701.15	897.00
701.40	900.00
701.66	870.00
701.91	899.00
702.16	884.00
702.42	888.00
702.67	851.00
702.92	864.00
703.17	881.00
703.43	901.00
703.68	876.00
703.93	909.00
704.18	922.00
704.44	885.00
704.69	863.00
704.94	894.00
705.19	877.00
705.45	897.00
705.70	882.00
705.95	872.00
706.20	893.00
706.46	920.00
706.71	877.00
706.96	872.00
707.21	881.00
707.47	898.00
707.72	895.00
707.97	888.00
708.22	918.00
708.48	928.00
708.73	880.00
708.98	846.00
709.23	880.00
709.49	893.00
709.74	865.00
709.99	871.00
710.24	885.00
710.50	888.00
710.75	874.00
711.00	902.00
711.25	900.00
711.50	884.00
711.76	858.00
712.01	859.00
712.26	872.00
712.51	914.00
712.77	869.00
713.02	867.00
713.27	876.00
713.52	886.00
713.78	873.00
714.03	876.00
714.28	875.00
714.53	896.00
714.78	882.00
715.04	900.00
715.29	892.00
715.54	909.00
715.79	866.00
716.05	896.00
716.30	911.00
716.55	920.00
716.80	876.00
717.05	892.00
717.31	902.00
717.56	897.00
717.81	865.00
718.06	851.00
718.31	844.00
718.57	899.00
718.82	880.00
719.07	913.00
719.32	893.00
719.57	903.00
719.83	872.00
720.08	904.00
720.33	866.00
720.58	864.00
720.83	852.00
721.09	924.00
721.34	901.00
721.59	918.00
721.84	865.00
722.09	874.00
722.35	908.00
722.60	878.00
722.85	851.00
723.10	885.00
723.35	874.00
723.61	901.00
723.86	903.00
724.11	901.00
724.36	900.00
724.61	871.00
724.87	861.00
725.12	869.00
725.37	871.00
725.62	858.00
725.87	868.00
726.12	871.00
726.38	864.00
726.63	880.00
726.88	853.00
727.13	895.00
727.38	891.00
727.64	890.00
727.89	855.00
728.14	864.00
728.39	854.00
728.64	890.00
728.89	864.00
729.15	893.00
729.40	906.00
729.65	910.00
729.90	866.00
730.15	891.00
730.40	904.00
730.66	900.00
730.91	869.00
731.16	887.00
731.41	874.00
731.66	886.00
731.91	878.00
732.17	899.00
732.42	890.00
732.67	890.00
732.92	866.00
733.17	898.00
733.42	888.00
733.68	881.00
733.93	854.00
734.18	864.00
734.43	857.00
734.68	880.00
734.93	874.00
735.18	885.00
735.44	892.00
735.69	889.00
735.94	838.00
736.19	890.00
736.44	884.00
736.69	925.00
736.95	859.00
737.20	898.00
737.45	913.00
737.70	894.00
737.95	882.00
738.20	906.00
738.45	896.00
738.70	889.00
738.96	862.00
739.21	885.00
739.46	899.00
739.71	913.00
739.96	880.00
740.21	892.00
740.46	934.00
740.72	932.00
740.97	873.00
741.22	880.00
741.47	864.00
741.72	907.00
741.97	854.00
742.22	887.00
742.47	897.00
742.73	884.00
742.98	846.00
743.23	849.00
743.48	861.00
743.73	881.00
743.98	883.00
744.23	885.00
744.48	889.00
744.74	889.00
744.99	863.00
745.24	893.00
745.49	893.00
745.74	909.00
745.99	864.00
746.24	878.00
746.49	875.00
746.74	876.00
747.00	879.00
747.25	874.00
747.50	859.00
747.75	870.00
748.00	831.00
748.25	859.00
748.50	878.00
748.75	908.00
749.00	907.00
749.26	910.00
749.51	901.00
749.76	908.00
750.01	849.00
750.26	883.00
750.51	926.00
750.76	904.00
751.01	860.00
751.26	863.00
751.51	882.00
751.77	895.00
752.02	871.00
752.27	881.00
752.52	893.00
752.77	886.00
753.02	868.00
753.27	873.00
753.52	883.00
753.77	868.00
754.02	857.00
754.27	878.00
754.52	876.00
754.78	893.00
755.03	867.00
755.28	890.00
755.53	899.00
755.78	896.00
756.03	860.00
756.28	886.00
756.53	888.00
756.78	898.00
757.03	870.00
757.28	884.00
757.53	888.00
757.79	868.00
758.04	839.00
758.29	901.00
758.54	902.00
758.79	892.00
759.04	860.00
759.29	853.00
759.54	874.00
759.79	883.00
760.04	875.00
760.29	881.00
760.54	870.00
760.79	868.00
761.04	847.00
761.29	861.00
761.55	859.00
761.80	877.00
762.05	851.00
762.30	888.00
762.55	877.00
762.80	901.00
763.05	889.00
763.30	910.00
763.55	913.00
763.80	902.00
764.05	853.00
764.30	881.00
764.55	917.00
764.80	903.00
765.05	854.00
765.30	910.00
765.55	897.00
765.80	891.00
766.05	851.00
766.30	894.00
766.56	889.00
766.81	902.00
767.06	896.00
767.31	898.00
767.56	871.00
767.81	896.00
768.06	870.00
768.31	894.00
768.56	885.00
768.81	928.00
769.06	861.00
769.31	872.00
769.56	891.00
769.81	928.00
770.06	869.00
770.31	866.00
770.56	888.00
770.81	873.00
771.06	846.00
771.31	868.00
771.56	881.00
771.81	900.00
772.06	843.00
772.31	889.00
772.56	882.00
772.81	884.00
773.06	856.00
773.31	878.00
773.56	894.00
773.81	868.00
774.06	852.00
774.31	898.00
774.56	884.00
774.81	920.00
775.06	886.00
775.31	922.00
775.56	904.00
775.81	893.00
776.06	851.00
776.31	883.00
776.56	897.00
776.82	904.00
777.07	848.00
777.32	855.00
777.57	880.00
777.82	919.00
778.07	867.00
778.32	870.00
778.57	898.00
778.82	905.00
779.07	869.00
779.32	877.00
779.57	866.00
779.82	876.00
780.07	858.00
780.32	878.00
780.56	873.00
780.81	917.00
781.06	857.00
781.31	885.00
781.56	909.00
781.81	901.00
782.06	869.00
782.31	903.00
782.56	893.00
782.81	910.00
783.06	855.00
783.31	854.00
783.56	875.00
783.81	906.00
784.06	871.00
784.31	872.00
784.56	848.00
784.81	916.00
785.06	873.00
785.31	889.00
785.56	847.00
785.81	848.00
786.06	836.00
786.31	876.00
786.56	878.00
786.81	893.00
787.06	880.00
787.31	860.00
787.56	875.00
787.81	880.00
788.06	850.00
788.31	904.00
788.56	880.00
788.81	909.00
789.06	878.00
789.31	875.00
789.56	873.00
789.81	873.00
790.06	840.00
790.31	881.00
790.56	866.00
790.80	886.00
791.05	852.00
791.30	853.00
791.55	857.00
791.80	874.00
792.05	850.00
792.30	849.00
792.55	855.00
792.80	882.00
793.05	851.00
793.30	871.00
793.55	888.00
793.80	894.00
794.05	858.00
794.30	881.00
794.55	890.00
794.80	891.00
795.05	846.00
795.30	850.00
795.54	854.00
795.79	896.00
796.04	853.00
796.29	893.00
796.54	876.00
796.79	903.00
797.04	865.00
797.29	880.00
797.54	906.00
797.79	901.00
798.04	862.00
798.29	876.00
798.54	866.00
798.79	865.00
799.04	858.00
799.29	876.00
799.53	876.00
799.78	875.00
800.03	866.00
800.28	860.00
800.53	868.00
800.78	920.00
801.03	861.00
801.28	883.00
801.53	875.00
801.78	902.00
802.03	871.00
802.28	877.00
802.52	909.00
802.77	922.00
803.02	879.00
803.27	895.00
803.52	863.00
803.77	906.00
804.02	872.00
804.27	902.00
804.52	879.00
804.77	913.00
805.02	876.00
805.27	894.00
805.51	897.00
805.76	922.00
806.01	854.00
806.26	865.00
806.51	877.00
806.76	910.00
807.01	882.00
807.26	852.00
807.51	887.00
807.76	867.00
808.00	860.00
808.25	878.00
808.50	894.00
808.75	860.00
809.00	851.00
809.25	882.00
809.50	889.00
809.75	906.00
810.00	891.00
810.24	875.00
810.49	851.00
810.74	849.00
810.99	858.00
811.24	880.00
811.49	882.00
811.74	901.00
811.99	832.00
812.24	885.00
812.48	881.00
812.73	865.00
812.98	840.00
813.23	854.00
813.48	878.00
813.73	883.00
813.98	817.00
814.23	853.00
814.47	855.00
814.72	874.00
814.97	863.00
815.22	902.00
815.47	874.00
815.72	881.00
815.97	845.00
816.22	875.00
816.46	880.00
816.71	892.00
816.96	869.00
817.21	893.00
817.46	866.00
817.71	897.00
817.96	875.00
818.20	870.00
818.45	868.00
818.70	874.00
818.95	837.00
819.20	860.00
819.45	879.00
819.70	900.00
819.94	850.00
820.19	888.00
820.44	882.00
820.69	908.00
820.94	876.00
821.19	885.00
821.44	920.00
821.68	941.00
821.93	887.00
822.18	889.00
822.43	905.00
822.68	910.00
822.93	864.00
823.17	873.00
823.42	886.00
823.67	884.00
823.92	856.00
824.17	877.00
824.42	868.00
824.67	892.00
824.91	878.00
825.16	877.00
825.41	871.00
825.66	875.00
825.91	838.00
826.16	873.00
826.40	890.00
826.65	897.00
826.90	851.00
827.15	872.00
827.40	894.00
827.65	912.00
827.89	815.00
828.14	862.00
828.39	876.00
828.64	894.00
828.89	849.00
829.13	867.00
829.38	871.00
829.63	887.00
829.88	842.00
830.13	849.00
830.38	858.00
830.62	868.00
830.87	844.00
831.12	885.00
831.37	911.00
831.62	917.00
831.86	862.00
832.11	861.00
832.36	876.00
832.61	908.00
832.86	886.00
833.10	886.00
833.35	880.00
833.60	895.00
833.85	854.00
834.10	873.00
834.35	901.00
834.59	921.00
834.84	864.00
835.09	892.00
835.34	841.00
835.59	873.00
835.83	867.00
836.08	876.00
836.33	902.00
836.58	912.00
836.83	867.00
837.07	877.00
837.32	900.00
837.57	894.00
837.82	872.00
838.06	868.00
838.31	901.00
838.56	914.00
838.81	865.00
839.06	896.00
839.30	871.00
839.55	903.00
839.80	843.00
840.05	869.00
840.30	897.00
840.54	922.00
840.79	862.00
841.04	885.00
841.29	891.00
841.53	895.00
841.78	861.00
842.03	852.00
842.28	850.00
842.53	870.00
842.77	877.00
843.02	883.00
843.27	871.00
843.52	882.00
843.76	875.00
844.01	889.00
844.26	867.00
844.51	906.00
844.75	864.00
845.00	877.00
845.25	880.00
845.50	893.00
845.75	873.00
845.99	886.00
846.24	898.00
846.49	894.00
846.74	852.00
846.98	845.00
847.23	871.00
847.48	880.00
847.73	839.00
847.97	877.00
848.22	909.00
848.47	909.00
848.72	861.00
848.96	854.00
849.21	865.00
849.46	856.00
849.71	861.00
849.95	871.00
850.20	857.00
850.45	885.00
850.70	835.00
850.94	878.00
851.19	885.00
851.44	892.00
851.69	846.00
851.93	877.00
852.18	897.00
852.43	889.00
852.68	868.00
852.92	905.00
853.17	908.00
853.42	903.00
853.66	869.00
853.91	896.00
854.16	894.00
854.41	942.00
854.65	879.00
854.90	884.00
855.15	875.00
855.40	889.00
855.64	887.00
855.89	875.00
856.14	865.00
856.39	862.00
856.63	841.00
856.88	866.00
857.13	861.00
857.37	861.00
857.62	852.00
857.87	839.00
858.12	876.00
858.36	913.00
858.61	837.00
858.86	878.00
859.10	900.00
859.35	890.00
859.60	844.00
859.85	837.00
860.09	862.00
860.34	883.00
860.59	874.00
860.83	882.00
861.08	884.00
861.33	909.00
861.58	866.00
861.82	865.00
862.07	883.00
862.32	889.00
862.56	857.00
862.81	878.00
863.06	887.00
863.30	876.00
863.55	863.00
863.80	883.00
864.05	874.00
864.29	886.00
864.54	882.00
864.79	881.00
865.03	883.00
865.28	916.00
865.53	871.00
865.77	845.00
866.02	880.00
866.27	897.00
866.51	868.00
866.76	865.00
867.01	865.00
867.26	910.00
867.50	876.00
867.75	850.00
868.00	892.00
868.24	894.00
868.49	863.00
868.74	871.00
868.98	872.00
869.23	886.00
869.48	875.00
869.72	872.00
869.97	860.00
870.22	904.00
870.46	868.00
870.71	884.00
870.96	885.00
871.20	897.00
871.45	847.00
871.70	886.00
871.94	918.00
872.19	908.00
872.44	880.00
872.68	870.00
872.93	869.00
873.18	880.00
873.42	863.00
873.67	877.00
873.92	902.00
874.16	892.00
874.41	879.00
874.66	890.00
874.90	888.00
875.15	924.00
875.40	885.00
875.64	884.00
875.89	881.00
876.14	886.00
876.38	850.00
876.63	862.00
876.88	876.00
877.12	882.00
877.37	851.00
877.62	889.00
877.86	872.00
878.11	884.00
878.36	852.00
878.60	863.00
878.85	866.00
879.09	875.00
879.34	877.00
879.59	901.00
879.83	912.00
880.08	940.00
880.33	905.00
880.57	897.00
880.82	902.00
881.07	905.00
881.31	880.00
881.56	882.00
881.80	870.00
882.05	890.00
882.30	836.00
882.54	866.00
882.79	913.00
883.04	927.00
883.28	886.00
883.53	876.00
883.77	904.00
884.02	908.00
884.27	862.00
884.51	857.00
884.76	868.00
885.01	900.00
885.25	844.00
885.50	889.00
885.74	872.00
885.99	907.00
886.24	865.00
886.48	865.00
886.73	878.00
886.98	905.00
887.22	880.00
887.47	881.00
887.71	903.00
887.96	878.00
888.21	860.00
888.45	867.00
888.70	874.00
888.94	914.00
889.19	851.00
889.44	859.00
889.68	871.00
889.93	913.00
890.17	867.00
890.42	863.00
890.67	900.00
890.91	972.00
891.16	867.00
891.40	849.00
891.65	858.00
891.90	908.00
892.14	842.00
892.39	880.00
892.63	876.00
892.88	926.00
893.13	883.00
893.37	860.00
893.62	873.00
893.86	918.00
894.11	866.00
894.36	880.00
894.60	854.00
894.85	874.00
895.09	852.00
895.34	900.00
895.59	872.00
895.83	869.00
896.08	862.00
896.32	872.00
896.57	892.00
896.81	894.00
897.06	876.00
897.31	871.00
897.55	886.00
897.80	892.00
898.04	838.00
898.29	860.00
898.53	887.00
898.78	902.00
899.03	862.00
899.27	849.00
899.52	901.00
899.76	907.00
900.01	871.00
900.25	892.00
900.50	898.00
900.75	898.00
900.99	878.00
901.24	956.00
901.48	899.00
901.73	881.00
901.97	847.00
902.22	871.00
902.47	893.00
902.71	878.00
902.96	845.00
903.20	872.00
903.45	884.00
903.69	896.00
903.94	881.00
904.18	864.00
904.43	872.00
904.68	878.00
904.92	847.00
905.17	876.00
905.41	905.00
905.66	898.00
905.90	883.00
906.15	874.00
906.39	883.00
906.64	885.00
906.88	834.00
907.13	857.00
907.38	894.00
907.62	907.00
907.87	857.00
908.11	892.00
908.36	869.00
908.60	886.00
908.85	814.00
909.09	862.00
909.34	865.00
909.58	883.00
909.83	847.00
910.07	853.00
910.32	916.00
910.56	928.00
910.81	854.00
911.06	891.00
911.30	889.00
911.55	889.00
911.79	863.00
912.04	854.00
912.28	863.00
912.53	902.00
912.77	880.00
913.02	877.00
913.26	863.00
913.51	875.00
913.75	869.00
914.00	875.00
914.24	893.00
914.49	892.00
914.73	854.00
914.98	890.00
915.22	902.00
915.47	890.00
915.71	847.00
915.96	886.00
916.20	869.00
916.45	860.00
916.69	858.00
916.94	871.00
917.18	864.00
917.43	878.00
917.67	870.00
917.92	868.00
918.16	898.00
918.41	906.00
918.65	864.00
918.90	845.00
919.14	849.00
919.39	870.00
919.63	855.00
919.88	864.00
920.12	899.00
920.37	908.00
920.61	854.00
920.86	880.00
921.10	894.00
921.35	876.00
921.59	845.00
921.84	874.00
922.08	899.00
922.33	913.00
922.57	853.00
922.82	863.00
923.06	882.00
923.31	900.00
923.55	830.00
923.80	864.00
924.04	865.00
924.29	910.00
924.53	861.00
924.78	864.00
925.02	865.00
925.27	870.00
925.51	868.00
925.76	897.00
926.00	871.00
926.25	878.00
926.49	865.00
926.73	886.00
926.98	878.00
927.22	910.00
927.47	886.00
927.71	870.00
927.96	881.00
928.20	883.00
928.45	869.00
928.69	904.00
928.94	887.00
929.18	874.00
929.43	900.00
929.67	895.00
929.91	892.00
930.16	890.00
930.40	842.00
930.65	832.00
930.89	865.00
931.14	907.00
931.38	873.00
931.63	883.00
931.87	897.00
932.12	903.00
932.36	840.00
932.60	863.00
932.85	885.00
933.09	874.00
933.34	850.00
933.58	882.00
933.83	881.00
934.07	888.00
934.32	865.00
934.56	879.00
934.80	913.00
935.05	917.00
935.29	892.00
935.54	883.00
935.78	877.00
936.03	896.00
936.27	844.00
936.52	847.00
936.76	868.00
937.00	897.00
937.25	861.00
937.49	884.00
937.74	913.00
937.98	892.00
938.23	828.00
938.47	851.00
938.71	869.00
938.96	869.00
939.20	843.00
939.45	853.00
939.69	861.00
939.94	912.00
940.18	851.00
940.42	874.00
940.67	881.00
940.91	887.00
941.16	850.00
941.40	840.00
941.64	868.00
941.89	881.00
942.13	852.00
942.38	883.00
942.62	944.00
942.87	907.00
943.11	877.00
943.35	865.00
943.60	895.00
943.84	915.00
944.09	878.00
944.33	902.00
944.57	913.00
944.82	873.00
945.06	859.00
945.31	885.00
945.55	874.00
945.79	889.00
946.04	847.00
946.28	870.00
946.53	876.00
946.77	896.00
947.01	840.00
947.26	882.00
947.50	873.00
947.75	896.00
947.99	861.00
948.23	882.00
948.48	877.00
948.72	870.00
948.97	843.00
949.21	858.00
949.45	872.00
949.70	902.00
949.94	873.00
950.18	881.00
950.43	867.00
950.67	873.00
950.92	862.00
951.16	857.00
951.40	862.00
951.65	871.00
951.89	860.00
952.13	877.00
952.38	893.00
952.62	885.00
952.87	863.00
953.11	880.00
953.35	907.00
953.60	900.00
953.84	829.00
954.08	837.00
954.33	874.00
954.57	896.00
954.82	877.00
955.06	863.00
955.30	858.00
955.55	866.00
955.79	871.00
956.03	861.00
956.28	861.00
956.52	863.00
956.76	854.00
957.01	885.00
957.25	874.00
957.50	882.00
957.74	845.00
957.98	849.00
958.23	878.00
958.47	900.00
958.71	876.00
958.96	905.00
959.20	921.00
959.44	890.00
959.69	853.00
959.93	886.00
960.17	892.00
960.42	901.00
960.66	878.00
960.90	885.00
961.15	872.00
961.39	882.00
961.64	834.00
961.88	849.00
962.12	881.00
962.37	896.00
962.61	857.00
962.85	853.00
963.10	890.00
963.34	880.00
963.58	850.00
963.83	881.00
964.07	889.00
964.31	886.00
964.56	871.00
964.80	861.00
965.04	873.00
965.29	882.00
965.53	851.00
965.77	850.00
966.02	839.00
966.26	868.00
966.50	838.00
966.74	879.00
966.99	914.00
967.23	893.00
967.47	849.00
967.72	865.00
967.96	877.00
968.20	897.00
968.45	855.00
968.69	869.00
968.93	865.00
969.18	900.00
969.42	897.00
969.66	885.00
969.91	862.00
970.15	881.00
970.39	845.00
970.64	877.00
970.88	883.00
971.12	890.00
971.36	863.00
971.61	859.00
971.85	865.00
972.09	878.00
972.34	855.00
972.58	870.00
972.82	884.00
973.07	906.00
973.31	849.00
973.55	860.00
973.79	895.00
974.04	920.00
974.28	879.00
974.52	873.00
974.77	871.00
975.01	912.00
975.25	863.00
975.50	881.00
975.74	900.00
975.98	917.00
976.22	877.00
976.47	873.00
976.71	887.00
976.95	902.00
977.20	879.00
977.44	879.00
977.68	890.00
977.92	889.00
978.17	867.00
978.41	865.00
978.65	894.00
978.90	872.00
979.14	872.00
979.38	864.00
979.62	868.00
979.87	869.00
980.11	840.00
980.35	868.00
980.59	882.00
980.84	881.00
981.08	866.00
981.32	869.00
981.57	901.00
981.81	894.00
982.05	860.00
982.29	870.00
982.54	880.00
982.78	886.00
983.02	843.00
983.26	871.00
983.51	908.00
983.75	898.00
983.99	864.00
984.23	887.00
984.48	891.00
984.72	916.00
984.96	852.00
985.20	860.00
985.45	923.00
985.69	893.00
985.93	865.00
986.17	884.00
986.42	891.00
986.66	875.00
986.90	833.00
987.14	857.00
987.39	879.00
987.63	867.00
987.87	855.00
988.11	859.00
988.36	889.00
988.60	901.00
988.84	889.00
989.08	879.00
989.33	902.00
989.57	899.00
989.81	842.00
990.05	848.00
990.30	873.00
990.54	867.00
990.78	850.00
991.02	849.00
991.27	888.00
991.51	896.00
991.75	849.00
991.99	878.00
992.23	871.00
992.48	853.00
992.72	854.00
992.96	863.00
993.20	853.00
993.45	891.00
993.69	888.00
993.93	860.00
994.17	883.00
994.41	876.00
994.66	848.00
994.90	860.00
995.14	900.00
995.38	883.00
995.63	871.00
995.87	866.00
996.11	916.00
996.35	913.00
996.59	854.00
996.84	847.00
997.08	880.00
997.32	865.00
997.56	848.00
997.80	842.00
998.05	870.00
998.29	863.00
998.53	845.00
998.77	874.00
999.01	899.00
999.26	910.00
999.50	863.00
999.74	858.00
999.98	874.00
1000.22	888.00
1000.47	841.00
1000.71	838.00
1000.95	869.00
1001.19	890.00
1001.43	876.00
1001.68	868.00
1001.92	857.00
1002.16	850.00
1002.40	845.00
1002.64	881.00
1002.89	897.00
1003.13	898.00
1003.37	863.00
1003.61	854.00
1003.85	875.00
1004.10	893.00
1004.34	866.00
1004.58	873.00
1004.82	896.00
1005.06	877.00
1005.30	838.00
1005.55	838.00
1005.79	872.00
1006.03	869.00
1006.27	868.00
1006.51	880.00
1006.76	886.00
1007.00	892.00
1007.24	876.00
1007.48	874.00
1007.72	901.00
1007.96	901.00
1008.21	873.00
1008.45	878.00
1008.69	890.00
1008.93	912.00
1009.17	868.00
1009.41	892.00
1009.66	913.00
1009.90	883.00
1010.14	853.00
1010.38	886.00
1010.62	912.00
1010.86	901.00
1011.10	860.00
1011.35	861.00
1011.59	870.00
1011.83	848.00
1012.07	844.00
1012.31	882.00
1012.55	884.00
1012.80	896.00
1013.04	874.00
1013.28	875.00
1013.52	891.00
1013.76	902.00
1014.00	842.00
1014.24	862.00
1014.49	877.00
1014.73	909.00
1014.97	901.00
1015.21	873.00
1015.45	902.00
1015.69	896.00
1015.93	867.00
1016.18	856.00
1016.42	902.00
1016.66	901.00
1016.90	858.00
1017.14	837.00
1017.38	854.00
1017.62	889.00
1017.87	866.00
1018.11	858.00
1018.35	870.00
1018.59	872.00
1018.83	850.00
1019.07	888.00
1019.31	916.00
1019.55	914.00
1019.80	872.00
1020.04	886.00
1020.28	878.00
1020.52	885.00
1020.76	855.00
1021.00	837.00
1021.24	858.00
1021.48	857.00
1021.73	873.00
1021.97	890.00
1022.21	888.00
1022.45	887.00
1022.69	848.00
1022.93	835.00
1023.17	881.00
1023.41	924.00
1023.65	889.00
1023.90	908.00
1024.14	892.00
1024.38	870.00
1024.62	842.00
1024.86	860.00
1025.10	880.00
1025.34	866.00
1025.58	850.00
1025.82	867.00
1026.07	893.00
1026.31	898.00
1026.55	851.00
1026.79	841.00
1027.03	881.00
1027.27	887.00
1027.51	836.00
1027.75	828.00
1027.99	850.00
1028.23	914.00
1028.47	889.00
1028.72	841.00
1028.96	883.00
1029.20	883.00
1029.44	868.00
1029.68	877.00
1029.92	886.00
1030.16	895.00
1030.40	837.00
1030.64	844.00
1030.88	852.00
1031.12	849.00
1031.37	841.00
1031.61	861.00
1031.85	888.00
1032.09	906.00
1032.33	873.00
1032.57	919.00
1032.81	886.00
1033.05	900.00
1033.29	886.00
1033.53	874.00
1033.77	918.00
1034.01	902.00
1034.25	882.00
1034.50	877.00
1034.74	893.00
1034.98	918.00
1035.22	869.00
1035.46	884.00
1035.70	913.00
1035.94	910.00
1036.18	872.00
1036.42	874.00
1036.66	853.00
1036.90	878.00
1037.14	851.00
1037.38	868.00
1037.62	894.00
1037.86	877.00
1038.10	854.00
1038.35	859.00
1038.59	898.00
1038.83	908.00
1039.07	885.00
1039.31	905.00
1039.55	863.00
1039.79	876.00
1040.03	838.00
1040.27	864.00
1040.51	916.00
1040.75	918.00
1040.99	874.00
1041.23	891.00
1041.47	896.00
1041.71	899.00
1041.95	846.00
1042.19	870.00
1042.43	929.00
1042.67	911.00
1042.91	873.00
1043.15	867.00
1043.39	923.00
1043.64	894.00
1043.88	856.00
1044.12	873.00
1044.36	924.00
1044.60	909.00
1044.84	883.00
1045.08	882.00
1045.32	889.00
1045.56	897.00
1045.80	869.00
1046.04	858.00
1046.28	896.00
1046.52	888.00
1046.76	821.00
1047.00	849.00
1047.24	891.00
1047.48	894.00
1047.72	868.00
1047.96	869.00
1048.20	898.00
1048.44	889.00
1048.68	848.00
1048.92	870.00
1049.16	872.00
1049.40	887.00
1049.64	866.00
1049.88	899.00
1050.12	907.00
1050.36	922.00
1050.60	868.00
1050.84	867.00
1051.08	873.00
1051.32	874.00
1051.56	866.00
1051.80	861.00
1052.04	871.00
1052.28	912.00
1052.52	837.00
1052.76	831.00
1053.00	860.00
1053.24	876.00
1053.48	848.00
1053.72	863.00
1053.96	893.00
1054.20	891.00
1054.44	881.00
1054.68	894.00
1054.92	900.00
1055.16	856.00
1055.40	863.00
1055.64	888.00
1055.88	892.00
1056.12	913.00
1056.36	823.00
1056.60	842.00
1056.84	901.00
1057.08	888.00
1057.32	855.00
1057.56	868.00
1057.80	887.00
1058.04	918.00
1058.28	850.00
1058.52	866.00
1058.76	897.00
1059.00	922.00
1059.24	844.00
1059.48	860.00
1059.72	897.00
1059.96	882.00
1060.20	880.00
1060.44	886.00
1060.68	918.00
1060.92	881.00
1061.16	850.00
1061.40	864.00
1061.64	890.00
1061.88	900.00
1062.11	870.00
1062.35	860.00
1062.59	863.00
1062.83	898.00
1063.07	869.00
1063.31	857.00
1063.55	865.00
1063.79	905.00
1064.03	873.00
1064.27	864.00
1064.51	884.00
1064.75	905.00
1064.99	882.00
1065.23	863.00
1065.47	858.00
1065.71	890.00
1065.95	861.00
1066.19	883.00
1066.43	899.00
1066.67	886.00
1066.91	874.00
1067.15	871.00
1067.38	870.00
1067.62	896.00
1067.86	858.00
1068.10	898.00
1068.34	919.00
1068.58	910.00
1068.82	853.00
1069.06	840.00
1069.30	871.00
1069.54	920.00
1069.78	891.00
1070.02	862.00
1070.26	893.00
1070.50	910.00
1070.74	870.00
1070.98	897.00
1071.21	897.00
1071.45	877.00
1071.69	855.00
1071.93	876.00
1072.17	890.00
1072.41	904.00
1072.65	892.00
1072.89	894.00
1073.13	884.00
1073.37	894.00
1073.61	866.00
1073.85	880.00
1074.09	860.00
1074.32	858.00
1074.56	856.00
1074.80	930.00
1075.04	1155.00
1075.28	1005.00
1075.52	876.00
1075.76	877.00
1076.00	894.00
1076.24	885.00
1076.48	885.00
1076.72	907.00
1076.96	902.00
1077.19	894.00
1077.43	851.00
1077.67	886.00
1077.91	896.00
1078.15	862.00
1078.39	866.00
1078.63	877.00
1078.87	900.00
1079.11	906.00
1079.35	851.00
1079.58	856.00
1079.82	871.00
1080.06	878.00
1080.30	834.00
1080.54	880.00
1080.78	913.00
1081.02	893.00
1081.26	876.00
1081.50	889.00
1081.74	890.00
1081.97	895.00
1082.21	862.00
1082.45	882.00
1082.69	882.00
1082.93	870.00
1083.17	863.00
1083.41	869.00
1083.65	922.00
1083.88	923.00
1084.12	885.00
1084.36	877.00
1084.60	889.00
1084.84	886.00
1085.08	845.00
1085.32	868.00
1085.56	909.00
1085.80	895.00
1086.03	874.00
1086.27	855.00
1086.51	874.00
1086.75	908.00
1086.99	870.00
1087.23	867.00
1087.47	900.00
1087.70	880.00
1087.94	866.00
1088.18	903.00
1088.42	928.00
1088.66	880.00
1088.90	845.00
1089.14	868.00
1089.38	889.00
1089.61	889.00
1089.85	860.00
1090.09	849.00
1090.33	908.00
1090.57	902.00
1090.81	826.00
1091.05	869.00
1091.28	892.00
1091.52	889.00
1091.76	858.00
1092.00	878.00
1092.24	889.00
1092.48	909.00
1092.71	845.00
1092.95	891.00
1093.19	899.00
1093.43	889.00
1093.67	854.00
1093.91	868.00
1094.15	866.00
1094.38	895.00
1094.62	863.00
1094.86	862.00
1095.10	869.00
1095.34	876.00
1095.58	866.00
1095.81	881.00
1096.05	897.00
1096.29	915.00
1096.53	862.00
1096.77	871.00
1097.01	860.00
1097.24	900.00
1097.48	856.00
1097.72	882.00
1097.96	882.00
1098.20	897.00
1098.44	850.00
1098.67	845.00
1098.91	900.00
1099.15	901.00
1099.39	841.00
1099.63	864.00
1099.86	885.00
1100.10	872.00
1100.34	862.00
1100.58	860.00
1100.82	888.00
1101.06	872.00
1101.29	830.00
1101.53	855.00
1101.77	896.00
1102.01	863.00
1102.25	847.00
1102.48	896.00
1102.72	926.00
1102.96	904.00
1103.20	845.00
1103.44	854.00
1103.67	880.00
1103.91	898.00
1104.15	843.00
1104.39	848.00
1104.63	884.00
1104.86	869.00
1105.10	844.00
1105.34	873.00
1105.58	876.00
1105.82	869.00
1106.05	864.00
1106.29	886.00
1106.53	896.00
1106.77	914.00
1107.01	845.00
1107.24	882.00
1107.48	925.00
1107.72	909.00
1107.96	854.00
1108.20	886.00
1108.43	890.00
1108.67	872.00
1108.91	865.00
1109.15	850.00
1109.39	874.00
1109.62	890.00
1109.86	851.00
1110.10	855.00
1110.34	926.00
1110.57	931.00
1110.81	874.00
1111.05	868.00
1111.29	928.00
1111.53	949.00
1111.76	863.00
1112.00	905.00
1112.24	922.00
1112.48	903.00
1112.71	844.00
1112.95	858.00
1113.19	902.00
1113.43	883.00
1113.66	833.00
1113.90	870.00
1114.14	889.00
1114.38	909.00
1114.62	859.00
1114.85	899.00
1115.09	923.00
1115.33	949.00
1115.57	894.00
1115.80	851.00
1116.04	875.00
1116.28	878.00
1116.52	866.00
1116.75	866.00
1116.99	880.00
1117.23	907.00
1117.47	876.00
1117.70	881.00
1117.94	924.00
1118.18	880.00
1118.42	867.00
1118.65	892.00
1118.89	906.00
1119.13	885.00
1119.37	865.00
1119.60	882.00
1119.84	897.00
>>>>>End Processed Spectral Data<<<<<
