SpectraSuite Data File
++++++++++++++++++++++++++++++++++++
Date: Fri Dec 06 15:54:20 CET 2024
User: student
Dark Spectrum Present: No
Reference Spectrum Present: No
Number of Sampled Component Spectra: 1
Spectrometers: HR4C155
Integration Time (usec): 100000 (HR4C155)
Spectra Averaged: 1 (HR4C155)
Boxcar Smoothing: 0 (HR4C155)
Correct for Electrical Dark: No (HR4C155)
Strobe/Lamp Enabled: No (HR4C155)
Correct for Detector Non-linearity: No (HR4C155)
Correct for Stray Light: No (HR4C155)
Number of Pixels in Processed Spectrum: 3648
>>>>>Begin Processed Spectral Data<<<<<
195.39	725.00
195.66	725.00
195.93	725.00
196.20	671.00
196.46	689.00
196.73	801.00
197.00	838.00
197.27	848.00
197.54	858.00
197.81	879.00
198.08	861.00
198.35	902.00
198.61	916.00
198.88	856.00
199.15	849.00
199.42	878.00
199.69	890.00
199.96	877.00
200.23	879.00
200.49	865.00
200.76	897.00
201.03	906.00
201.30	893.00
201.57	933.00
201.84	950.00
202.11	900.00
202.38	910.00
202.64	931.00
202.91	947.00
203.18	869.00
203.45	912.00
203.72	993.00
203.99	935.00
204.25	919.00
204.52	914.00
204.79	925.00
205.06	948.00
205.33	899.00
205.60	900.00
205.87	949.00
206.13	942.00
206.40	905.00
206.67	902.00
206.94	939.00
207.21	938.00
207.48	909.00
207.75	922.00
208.01	960.00
208.28	940.00
208.55	891.00
208.82	909.00
209.09	924.00
209.36	949.00
209.62	919.00
209.89	930.00
210.16	949.00
210.43	989.00
210.70	904.00
210.97	916.00
211.23	937.00
211.50	946.00
211.77	926.00
212.04	927.00
212.31	917.00
212.58	943.00
212.84	910.00
213.11	914.00
213.38	887.00
213.65	912.00
213.92	897.00
214.18	910.00
214.45	956.00
214.72	969.00
214.99	880.00
215.26	917.00
215.53	919.00
215.79	940.00
216.06	940.00
216.33	923.00
216.60	897.00
216.87	933.00
217.13	871.00
217.40	878.00
217.67	910.00
217.94	948.00
218.21	895.00
218.48	937.00
218.74	991.00
219.01	941.00
219.28	870.00
219.55	882.00
219.82	926.00
220.08	949.00
220.35	917.00
220.62	907.00
220.89	953.00
221.16	985.00
221.42	924.00
221.69	909.00
221.96	932.00
222.23	958.00
222.50	939.00
222.76	917.00
223.03	917.00
223.30	913.00
223.57	891.00
223.84	895.00
224.10	898.00
224.37	909.00
224.64	893.00
224.91	921.00
225.18	956.00
225.44	956.00
225.71	913.00
225.98	939.00
226.25	960.00
226.51	949.00
226.78	904.00
227.05	903.00
227.32	920.00
227.59	935.00
227.85	921.00
228.12	920.00
228.39	957.00
228.66	954.00
228.92	967.00
229.19	928.00
229.46	954.00
229.73	931.00
230.00	902.00
230.26	923.00
230.53	949.00
230.80	942.00
231.07	874.00
231.33	893.00
231.60	918.00
231.87	938.00
232.14	886.00
232.41	938.00
232.67	935.00
232.94	936.00
233.21	882.00
233.48	908.00
233.74	922.00
234.01	912.00
234.28	888.00
234.55	907.00
234.81	914.00
235.08	954.00
235.35	907.00
235.62	906.00
235.88	920.00
236.15	963.00
236.42	924.00
236.69	932.00
236.95	960.00
237.22	924.00
237.49	899.00
237.76	903.00
238.02	947.00
238.29	950.00
238.56	921.00
238.83	908.00
239.09	925.00
239.36	954.00
239.63	917.00
239.90	927.00
240.16	948.00
240.43	992.00
240.70	903.00
240.97	906.00
241.23	906.00
241.50	937.00
241.77	913.00
242.04	912.00
242.30	873.00
242.57	905.00
242.84	889.00
243.11	893.00
243.37	897.00
243.64	954.00
243.91	913.00
244.18	900.00
244.44	895.00
244.71	909.00
244.98	907.00
245.24	909.00
245.51	931.00
245.78	968.00
246.05	890.00
246.31	885.00
246.58	924.00
246.85	922.00
247.12	910.00
247.38	952.00
247.65	932.00
247.92	948.00
248.18	916.00
248.45	915.00
248.72	924.00
248.99	915.00
249.25	884.00
249.52	900.00
249.79	927.00
250.05	933.00
250.32	899.00
250.59	905.00
250.86	919.00
251.12	917.00
251.39	893.00
251.66	904.00
251.92	944.00
252.19	947.00
252.46	897.00
252.73	929.00
252.99	953.00
253.26	964.00
253.53	904.00
253.79	927.00
254.06	929.00
254.33	911.00
254.60	880.00
254.86	895.00
255.13	948.00
255.40	966.00
255.66	918.00
255.93	925.00
256.20	936.00
256.46	933.00
256.73	904.00
257.00	909.00
257.26	923.00
257.53	929.00
257.80	921.00
258.07	911.00
258.33	961.00
258.60	947.00
258.87	894.00
259.13	926.00
259.40	908.00
259.67	950.00
259.93	916.00
260.20	925.00
260.47	951.00
260.73	918.00
261.00	880.00
261.27	902.00
261.53	942.00
261.80	928.00
262.07	869.00
262.34	898.00
262.60	881.00
262.87	917.00
263.14	880.00
263.40	919.00
263.67	901.00
263.94	902.00
264.20	884.00
264.47	880.00
264.74	893.00
265.00	913.00
265.27	875.00
265.54	888.00
265.80	933.00
266.07	951.00
266.34	897.00
266.60	898.00
266.87	937.00
267.14	933.00
267.40	885.00
267.67	881.00
267.94	924.00
268.20	914.00
268.47	880.00
268.74	891.00
269.00	924.00
269.27	889.00
269.54	869.00
269.80	883.00
270.07	940.00
270.33	920.00
270.60	910.00
270.87	913.00
271.13	914.00
271.40	929.00
271.67	854.00
271.93	862.00
272.20	924.00
272.47	885.00
272.73	864.00
273.00	898.00
273.27	919.00
273.53	950.00
273.80	901.00
274.07	879.00
274.33	877.00
274.60	922.00
274.86	900.00
275.13	920.00
275.40	912.00
275.66	950.00
275.93	881.00
276.20	875.00
276.46	917.00
276.73	893.00
277.00	893.00
277.26	912.00
277.53	924.00
277.79	910.00
278.06	883.00
278.33	936.00
278.59	934.00
278.86	899.00
279.13	896.00
279.39	909.00
279.66	958.00
279.93	948.00
280.19	889.00
280.46	903.00
280.72	907.00
280.99	936.00
281.26	893.00
281.52	894.00
281.79	929.00
282.05	912.00
282.32	882.00
282.59	897.00
282.85	959.00
283.12	940.00
283.39	889.00
283.65	910.00
283.92	926.00
284.18	941.00
284.45	901.00
284.72	904.00
284.98	909.00
285.25	910.00
285.51	927.00
285.78	909.00
286.05	905.00
286.31	905.00
286.58	875.00
286.84	880.00
287.11	912.00
287.38	910.00
287.64	913.00
287.91	893.00
288.17	923.00
288.44	926.00
288.71	873.00
288.97	899.00
289.24	924.00
289.50	912.00
289.77	901.00
290.04	877.00
290.30	885.00
290.57	948.00
290.83	853.00
291.10	885.00
291.37	924.00
291.63	923.00
291.90	919.00
292.16	910.00
292.43	932.00
292.70	917.00
292.96	863.00
293.23	887.00
293.49	911.00
293.76	938.00
294.02	887.00
294.29	873.00
294.56	924.00
294.82	935.00
295.09	900.00
295.35	890.00
295.62	948.00
295.89	956.00
296.15	887.00
296.42	889.00
296.68	901.00
296.95	901.00
297.21	913.00
297.48	915.00
297.75	908.00
298.01	957.00
298.28	902.00
298.54	915.00
298.81	926.00
299.07	931.00
299.34	865.00
299.61	903.00
299.87	930.00
300.14	907.00
300.40	920.00
300.67	909.00
300.93	934.00
301.20	967.00
301.46	898.00
301.73	893.00
302.00	912.00
302.26	906.00
302.53	905.00
302.79	904.00
303.06	924.00
303.32	973.00
303.59	900.00
303.85	889.00
304.12	906.00
304.39	914.00
304.65	877.00
304.92	897.00
305.18	913.00
305.45	935.00
305.71	893.00
305.98	906.00
306.24	907.00
306.51	904.00
306.77	891.00
307.04	906.00
307.31	949.00
307.57	951.00
307.84	871.00
308.10	891.00
308.37	875.00
308.63	894.00
308.90	871.00
309.16	896.00
309.43	938.00
309.69	906.00
309.96	886.00
310.22	886.00
310.49	917.00
310.76	931.00
311.02	874.00
311.29	891.00
311.55	910.00
311.82	924.00
312.08	905.00
312.35	905.00
312.61	915.00
312.88	940.00
313.14	888.00
313.41	885.00
313.67	877.00
313.94	914.00
314.20	893.00
314.47	912.00
314.73	899.00
315.00	887.00
315.26	878.00
315.53	923.00
315.79	930.00
316.06	923.00
316.32	893.00
316.59	926.00
316.85	921.00
317.12	928.00
317.39	892.00
317.65	894.00
317.92	906.00
318.18	933.00
318.45	898.00
318.71	933.00
318.98	936.00
319.24	920.00
319.51	909.00
319.77	892.00
320.04	896.00
320.30	892.00
320.57	887.00
320.83	886.00
321.10	884.00
321.36	916.00
321.63	877.00
321.89	875.00
322.16	934.00
322.42	918.00
322.69	880.00
322.95	887.00
323.22	919.00
323.48	936.00
323.75	885.00
324.01	898.00
324.28	921.00
324.54	937.00
324.80	904.00
325.07	927.00
325.33	927.00
325.60	896.00
325.86	874.00
326.13	886.00
326.39	907.00
326.66	892.00
326.92	861.00
327.19	894.00
327.45	941.00
327.72	936.00
327.98	882.00
328.25	886.00
328.51	917.00
328.78	901.00
329.04	884.00
329.31	912.00
329.57	915.00
329.84	907.00
330.10	882.00
330.37	901.00
330.63	939.00
330.89	974.00
331.16	910.00
331.42	889.00
331.69	935.00
331.95	908.00
332.22	907.00
332.48	951.00
332.75	936.00
333.01	897.00
333.28	883.00
333.54	882.00
333.81	902.00
334.07	930.00
334.34	906.00
334.60	902.00
334.86	958.00
335.13	960.00
335.39	903.00
335.66	905.00
335.92	924.00
336.19	914.00
336.45	854.00
336.72	884.00
336.98	905.00
337.24	906.00
337.51	873.00
337.77	882.00
338.04	898.00
338.30	918.00
338.57	893.00
338.83	916.00
339.10	932.00
339.36	921.00
339.63	884.00
339.89	862.00
340.15	902.00
340.42	938.00
340.68	925.00
340.95	922.00
341.21	915.00
341.48	930.00
341.74	870.00
342.00	863.00
342.27	914.00
342.53	917.00
342.80	883.00
343.06	902.00
343.33	909.00
343.59	944.00
343.85	897.00
344.12	915.00
344.38	974.00
344.65	957.00
344.91	884.00
345.18	876.00
345.44	901.00
345.70	903.00
345.97	868.00
346.23	885.00
346.50	915.00
346.76	910.00
347.03	888.00
347.29	905.00
347.55	902.00
347.82	902.00
348.08	858.00
348.35	878.00
348.61	950.00
348.87	930.00
349.14	878.00
349.40	875.00
349.67	922.00
349.93	914.00
350.20	888.00
350.46	893.00
350.72	943.00
350.99	910.00
351.25	887.00
351.52	897.00
351.78	905.00
352.04	928.00
352.31	906.00
352.57	895.00
352.84	906.00
353.10	918.00
353.36	905.00
353.63	890.00
353.89	882.00
354.16	917.00
354.42	906.00
354.68	920.00
354.95	942.00
355.21	932.00
355.48	871.00
355.74	904.00
356.00	940.00
356.27	942.00
356.53	891.00
356.80	892.00
357.06	916.00
357.32	930.00
357.59	924.00
357.85	903.00
358.11	951.00
358.38	940.00
358.64	906.00
358.91	902.00
359.17	906.00
359.43	932.00
359.70	922.00
359.96	920.00
360.22	950.00
360.49	910.00
360.75	898.00
361.02	877.00
361.28	900.00
361.54	906.00
361.81	866.00
362.07	895.00
362.33	910.00
362.60	899.00
362.86	886.00
363.13	912.00
363.39	930.00
363.65	947.00
363.92	870.00
364.18	860.00
364.44	904.00
364.71	917.00
364.97	870.00
365.24	885.00
365.50	917.00
365.76	921.00
366.03	890.00
366.29	914.00
366.55	943.00
366.82	904.00
367.08	866.00
367.34	895.00
367.61	914.00
367.87	928.00
368.13	900.00
368.40	897.00
368.66	973.00
368.93	940.00
369.19	872.00
369.45	887.00
369.72	917.00
369.98	900.00
370.24	874.00
370.51	866.00
370.77	898.00
371.03	907.00
371.30	901.00
371.56	930.00
371.82	943.00
372.09	921.00
372.35	901.00
372.61	908.00
372.88	904.00
373.14	920.00
373.40	887.00
373.67	902.00
373.93	920.00
374.19	934.00
374.46	885.00
374.72	888.00
374.98	916.00
375.25	933.00
375.51	918.00
375.77	902.00
376.04	925.00
376.30	931.00
376.56	889.00
376.83	897.00
377.09	937.00
377.35	936.00
377.62	894.00
377.88	897.00
378.14	885.00
378.41	914.00
378.67	886.00
378.93	880.00
379.20	926.00
379.46	902.00
379.72	870.00
379.99	886.00
380.25	893.00
380.51	878.00
380.77	874.00
381.04	894.00
381.30	925.00
381.56	935.00
381.83	901.00
382.09	884.00
382.35	901.00
382.62	938.00
382.88	908.00
383.14	905.00
383.41	901.00
383.67	903.00
383.93	905.00
384.20	887.00
384.46	908.00
384.72	938.00
384.98	877.00
385.25	900.00
385.51	926.00
385.77	914.00
386.04	891.00
386.30	882.00
386.56	922.00
386.82	965.00
387.09	888.00
387.35	917.00
387.61	979.00
387.88	918.00
388.14	900.00
388.40	889.00
388.67	904.00
388.93	899.00
389.19	892.00
389.45	889.00
389.72	893.00
389.98	913.00
390.24	892.00
390.51	906.00
390.77	920.00
391.03	939.00
391.29	888.00
391.56	903.00
391.82	933.00
392.08	958.00
392.35	885.00
392.61	890.00
392.87	924.00
393.13	941.00
393.40	895.00
393.66	897.00
393.92	934.00
394.18	919.00
394.45	856.00
394.71	879.00
394.97	901.00
395.24	876.00
395.50	872.00
395.76	914.00
396.02	934.00
396.29	906.00
396.55	866.00
396.81	836.00
397.07	902.00
397.34	886.00
397.60	869.00
397.86	880.00
398.12	905.00
398.39	957.00
398.65	892.00
398.91	893.00
399.17	911.00
399.44	870.00
399.70	840.00
399.96	880.00
400.22	894.00
400.49	925.00
400.75	880.00
401.01	871.00
401.27	882.00
401.54	936.00
401.80	908.00
402.06	867.00
402.32	919.00
402.59	901.00
402.85	874.00
403.11	892.00
403.37	892.00
403.64	918.00
403.90	871.00
404.16	886.00
404.42	899.00
404.69	890.00
404.95	877.00
405.21	845.00
405.47	882.00
405.74	919.00
406.00	882.00
406.26	859.00
406.52	901.00
406.79	923.00
407.05	885.00
407.31	901.00
407.57	913.00
407.83	935.00
408.10	862.00
408.36	873.00
408.62	903.00
408.88	901.00
409.15	861.00
409.41	839.00
409.67	878.00
409.93	937.00
410.20	901.00
410.46	884.00
410.72	894.00
410.98	902.00
411.24	891.00
411.51	884.00
411.77	900.00
412.03	906.00
412.29	896.00
412.55	911.00
412.82	900.00
413.08	914.00
413.34	891.00
413.60	880.00
413.87	915.00
414.13	917.00
414.39	871.00
414.65	904.00
414.91	927.00
415.18	898.00
415.44	868.00
415.70	874.00
415.96	895.00
416.22	924.00
416.49	879.00
416.75	878.00
417.01	904.00
417.27	894.00
417.53	883.00
417.80	905.00
418.06	939.00
418.32	931.00
418.58	877.00
418.84	872.00
419.11	909.00
419.37	929.00
419.63	867.00
419.89	875.00
420.15	910.00
420.42	910.00
420.68	872.00
420.94	899.00
421.20	916.00
421.46	905.00
421.72	897.00
421.99	907.00
422.25	905.00
422.51	911.00
422.77	913.00
423.03	916.00
423.30	921.00
423.56	931.00
423.82	916.00
424.08	899.00
424.34	924.00
424.60	918.00
424.87	882.00
425.13	881.00
425.39	898.00
425.65	901.00
425.91	872.00
426.18	901.00
426.44	904.00
426.70	883.00
426.96	850.00
427.22	849.00
427.48	898.00
427.75	886.00
428.01	846.00
428.27	878.00
428.53	934.00
428.79	914.00
429.05	876.00
429.32	889.00
429.58	929.00
429.84	882.00
430.10	886.00
430.36	894.00
430.62	914.00
430.88	923.00
431.15	903.00
431.41	911.00
431.67	907.00
431.93	881.00
432.19	866.00
432.45	904.00
432.72	909.00
432.98	925.00
433.24	918.00
433.50	991.00
433.76	902.00
434.02	877.00
434.28	858.00
434.55	875.00
434.81	901.00
435.07	922.00
435.33	861.00
435.59	873.00
435.85	908.00
436.11	909.00
436.38	873.00
436.64	878.00
436.90	890.00
437.16	910.00
437.42	884.00
437.68	885.00
437.94	905.00
438.21	915.00
438.47	921.00
438.73	904.00
438.99	899.00
439.25	913.00
439.51	859.00
439.77	875.00
440.03	875.00
440.30	901.00
440.56	886.00
440.82	909.00
441.08	922.00
441.34	893.00
441.60	842.00
441.86	891.00
442.12	920.00
442.39	903.00
442.65	868.00
442.91	881.00
443.17	890.00
443.43	908.00
443.69	888.00
443.95	864.00
444.21	879.00
444.47	924.00
444.74	872.00
445.00	884.00
445.26	899.00
445.52	916.00
445.78	871.00
446.04	867.00
446.30	919.00
446.56	903.00
446.82	871.00
447.09	876.00
447.35	910.00
447.61	920.00
447.87	884.00
448.13	893.00
448.39	951.00
448.65	922.00
448.91	871.00
449.17	877.00
449.43	878.00
449.70	900.00
449.96	863.00
450.22	881.00
450.48	899.00
450.74	926.00
451.00	887.00
451.26	880.00
451.52	915.00
451.78	907.00
452.04	870.00
452.31	902.00
452.57	912.00
452.83	871.00
453.09	862.00
453.35	881.00
453.61	903.00
453.87	908.00
454.13	906.00
454.39	918.00
454.65	965.00
454.91	956.00
455.17	873.00
455.44	890.00
455.70	905.00
455.96	909.00
456.22	869.00
456.48	878.00
456.74	890.00
457.00	874.00
457.26	828.00
457.52	862.00
457.78	903.00
458.04	913.00
458.30	875.00
458.56	881.00
458.82	889.00
459.09	881.00
459.35	833.00
459.61	851.00
459.87	905.00
460.13	932.00
460.39	867.00
460.65	864.00
460.91	912.00
461.17	890.00
461.43	841.00
461.69	856.00
461.95	909.00
462.21	879.00
462.47	874.00
462.73	914.00
462.99	929.00
463.26	925.00
463.52	876.00
463.78	863.00
464.04	888.00
464.30	896.00
464.56	856.00
464.82	884.00
465.08	929.00
465.34	940.00
465.60	890.00
465.86	894.00
466.12	884.00
466.38	871.00
466.64	863.00
466.90	884.00
467.16	909.00
467.42	918.00
467.68	884.00
467.94	897.00
468.20	935.00
468.46	921.00
468.72	893.00
468.98	913.00
469.25	916.00
469.51	883.00
469.77	881.00
470.03	884.00
470.29	909.00
470.55	919.00
470.81	903.00
471.07	906.00
471.33	935.00
471.59	916.00
471.85	881.00
472.11	900.00
472.37	934.00
472.63	910.00
472.89	898.00
473.15	863.00
473.41	907.00
473.67	901.00
473.93	861.00
474.19	862.00
474.45	878.00
474.71	889.00
474.97	861.00
475.23	891.00
475.49	887.00
475.75	886.00
476.01	902.00
476.27	907.00
476.53	937.00
476.79	918.00
477.05	899.00
477.31	875.00
477.57	898.00
477.83	897.00
478.09	854.00
478.35	893.00
478.61	942.00
478.87	912.00
479.13	873.00
479.39	910.00
479.65	908.00
479.91	905.00
480.17	889.00
480.43	915.00
480.69	905.00
480.95	913.00
481.21	880.00
481.47	890.00
481.73	904.00
481.99	881.00
482.25	840.00
482.51	863.00
482.77	913.00
483.03	907.00
483.29	901.00
483.55	883.00
483.81	914.00
484.07	908.00
484.33	868.00
484.59	888.00
484.85	919.00
485.11	903.00
485.37	874.00
485.63	871.00
485.89	884.00
486.15	891.00
486.41	875.00
486.67	882.00
486.93	894.00
487.19	886.00
487.45	871.00
487.71	859.00
487.97	906.00
488.23	908.00
488.49	868.00
488.75	873.00
489.01	917.00
489.27	929.00
489.53	873.00
489.79	862.00
490.05	879.00
490.31	900.00
490.57	901.00
490.83	950.00
491.08	883.00
491.34	866.00
491.60	855.00
491.86	886.00
492.12	921.00
492.38	925.00
492.64	876.00
492.90	868.00
493.16	909.00
493.42	878.00
493.68	871.00
493.94	910.00
494.20	889.00
494.46	897.00
494.72	862.00
494.98	873.00
495.24	904.00
495.50	905.00
495.76	885.00
496.02	904.00
496.28	924.00
496.54	912.00
496.80	876.00
497.05	858.00
497.31	904.00
497.57	926.00
497.83	896.00
498.09	899.00
498.35	933.00
498.61	908.00
498.87	881.00
499.13	888.00
499.39	902.00
499.65	891.00
499.91	889.00
500.17	868.00
500.43	947.00
500.69	995.00
500.95	880.00
501.20	902.00
501.46	919.00
501.72	912.00
501.98	916.00
502.24	912.00
502.50	945.00
502.76	909.00
503.02	888.00
503.28	897.00
503.54	949.00
503.80	940.00
504.06	909.00
504.32	913.00
504.58	915.00
504.83	888.00
505.09	861.00
505.35	878.00
505.61	874.00
505.87	879.00
506.13	878.00
506.39	884.00
506.65	924.00
506.91	959.00
507.17	899.00
507.43	886.00
507.68	903.00
507.94	932.00
508.20	874.00
508.46	864.00
508.72	901.00
508.98	935.00
509.24	859.00
509.50	903.00
509.76	891.00
510.02	899.00
510.28	859.00
510.53	872.00
510.79	900.00
511.05	897.00
511.31	868.00
511.57	880.00
511.83	887.00
512.09	899.00
512.35	880.00
512.61	883.00
512.87	897.00
513.12	913.00
513.38	872.00
513.64	900.00
513.90	896.00
514.16	923.00
514.42	897.00
514.68	894.00
514.94	926.00
515.20	935.00
515.45	885.00
515.71	873.00
515.97	908.00
516.23	897.00
516.49	869.00
516.75	877.00
517.01	905.00
517.27	886.00
517.53	865.00
517.78	875.00
518.04	896.00
518.30	887.00
518.56	844.00
518.82	883.00
519.08	923.00
519.34	882.00
519.60	883.00
519.85	889.00
520.11	893.00
520.37	908.00
520.63	877.00
520.89	898.00
521.15	912.00
521.41	889.00
521.66	884.00
521.92	885.00
522.18	920.00
522.44	917.00
522.70	891.00
522.96	866.00
523.22	910.00
523.48	906.00
523.73	867.00
523.99	872.00
524.25	926.00
524.51	921.00
524.77	872.00
525.03	879.00
525.29	915.00
525.54	921.00
525.80	880.00
526.06	879.00
526.32	885.00
526.58	892.00
526.84	875.00
527.09	875.00
527.35	870.00
527.61	872.00
527.87	873.00
528.13	885.00
528.39	891.00
528.65	885.00
528.90	850.00
529.16	875.00
529.42	881.00
529.68	888.00
529.94	863.00
530.20	893.00
530.45	882.00
530.71	902.00
530.97	866.00
531.23	889.00
531.49	918.00
531.75	900.00
532.00	888.00
532.26	883.00
532.52	907.00
532.78	888.00
533.04	856.00
533.30	864.00
533.55	884.00
533.81	891.00
534.07	846.00
534.33	866.00
534.59	916.00
534.85	904.00
535.10	877.00
535.36	872.00
535.62	913.00
535.88	899.00
536.14	862.00
536.39	858.00
536.65	913.00
536.91	919.00
537.17	877.00
537.43	892.00
537.69	936.00
537.94	912.00
538.20	850.00
538.46	873.00
538.72	903.00
538.98	924.00
539.23	875.00
539.49	870.00
539.75	933.00
540.01	909.00
540.27	870.00
540.52	909.00
540.78	901.00
541.04	906.00
541.30	866.00
541.56	869.00
541.81	947.00
542.07	985.00
542.33	878.00
542.59	877.00
542.85	907.00
543.10	888.00
543.36	862.00
543.62	878.00
543.88	882.00
544.14	882.00
544.39	870.00
544.65	873.00
544.91	924.00
545.17	918.00
545.43	866.00
545.68	885.00
545.94	905.00
546.20	912.00
546.46	871.00
546.71	880.00
546.97	901.00
547.23	908.00
547.49	869.00
547.75	872.00
548.00	900.00
548.26	931.00
548.52	860.00
548.78	859.00
549.03	885.00
549.29	887.00
549.55	852.00
549.81	874.00
550.07	918.00
550.32	906.00
550.58	870.00
550.84	918.00
551.10	896.00
551.35	874.00
551.61	871.00
551.87	890.00
552.13	917.00
552.39	888.00
552.64	853.00
552.90	881.00
553.16	903.00
553.42	894.00
553.67	854.00
553.93	876.00
554.19	911.00
554.45	943.00
554.70	891.00
554.96	872.00
555.22	907.00
555.48	923.00
555.73	882.00
555.99	883.00
556.25	920.00
556.51	900.00
556.76	884.00
557.02	902.00
557.28	920.00
557.54	899.00
557.79	868.00
558.05	884.00
558.31	890.00
558.57	928.00
558.82	863.00
559.08	834.00
559.34	859.00
559.60	906.00
559.85	884.00
560.11	871.00
560.37	886.00
560.63	885.00
560.88	860.00
561.14	862.00
561.40	905.00
561.66	893.00
561.91	866.00
562.17	872.00
562.43	887.00
562.68	929.00
562.94	892.00
563.20	898.00
563.46	912.00
563.71	924.00
563.97	881.00
564.23	894.00
564.49	923.00
564.74	906.00
565.00	857.00
565.26	870.00
565.51	890.00
565.77	886.00
566.03	865.00
566.29	892.00
566.54	884.00
566.80	890.00
567.06	872.00
567.31	906.00
567.57	926.00
567.83	893.00
568.09	879.00
568.34	880.00
568.60	892.00
568.86	918.00
569.11	895.00
569.37	865.00
569.63	886.00
569.89	925.00
570.14	851.00
570.40	867.00
570.66	888.00
570.91	882.00
571.17	857.00
571.43	900.00
571.69	942.00
571.94	932.00
572.20	862.00
572.46	882.00
572.71	917.00
572.97	899.00
573.23	862.00
573.48	865.00
573.74	896.00
574.00	920.00
574.26	878.00
574.51	908.00
574.77	920.00
575.03	885.00
575.28	876.00
575.54	885.00
575.80	894.00
576.05	899.00
576.31	859.00
576.57	856.00
576.82	908.00
577.08	912.00
577.34	871.00
577.59	865.00
577.85	921.00
578.11	886.00
578.37	872.00
578.62	857.00
578.88	905.00
579.14	924.00
579.39	886.00
579.65	890.00
579.91	907.00
580.16	907.00
580.42	890.00
580.68	870.00
580.93	911.00
581.19	889.00
581.45	857.00
581.70	896.00
581.96	925.00
582.22	938.00
582.47	901.00
582.73	900.00
582.99	917.00
583.24	907.00
583.50	857.00
583.76	867.00
584.01	867.00
584.27	905.00
584.53	889.00
584.78	890.00
585.04	887.00
585.30	894.00
585.55	872.00
585.81	852.00
586.07	912.00
586.32	901.00
586.58	875.00
586.83	879.00
587.09	911.00
587.35	905.00
587.60	876.00
587.86	876.00
588.12	897.00
588.37	922.00
588.63	875.00
588.89	888.00
589.14	918.00
589.40	912.00
589.66	866.00
589.91	892.00
590.17	900.00
590.43	877.00
590.68	864.00
590.94	882.00
591.19	917.00
591.45	895.00
591.71	859.00
591.96	882.00
592.22	907.00
592.48	911.00
592.73	849.00
592.99	890.00
593.25	891.00
593.50	913.00
593.76	858.00
594.01	871.00
594.27	918.00
594.53	917.00
594.78	881.00
595.04	879.00
595.30	898.00
595.55	892.00
595.81	851.00
596.06	896.00
596.32	931.00
596.58	916.00
596.83	885.00
597.09	897.00
597.35	896.00
597.60	878.00
597.86	854.00
598.11	894.00
598.37	922.00
598.63	920.00
598.88	895.00
599.14	882.00
599.39	914.00
599.65	897.00
599.91	838.00
600.16	883.00
600.42	894.00
600.67	936.00
600.93	876.00
601.19	908.00
601.44	955.00
601.70	917.00
601.95	854.00
602.21	899.00
602.47	901.00
602.72	919.00
602.98	860.00
603.23	882.00
603.49	914.00
603.75	923.00
604.00	892.00
604.26	903.00
604.51	897.00
604.77	940.00
605.03	881.00
605.28	886.00
605.54	937.00
605.79	939.00
606.05	866.00
606.31	872.00
606.56	914.00
606.82	937.00
607.07	888.00
607.33	917.00
607.59	936.00
607.84	913.00
608.10	875.00
608.35	885.00
608.61	942.00
608.86	942.00
609.12	897.00
609.38	938.00
609.63	944.00
609.89	931.00
610.14	868.00
610.40	868.00
610.65	912.00
610.91	918.00
611.17	900.00
611.42	903.00
611.68	948.00
611.93	959.00
612.19	930.00
612.44	941.00
612.70	953.00
612.96	907.00
613.21	901.00
613.47	908.00
613.72	928.00
613.98	942.00
614.23	892.00
614.49	936.00
614.75	956.00
615.00	942.00
615.26	930.00
615.51	924.00
615.77	953.00
616.02	972.00
616.28	911.00
616.53	945.00
616.79	947.00
617.05	927.00
617.30	928.00
617.56	939.00
617.81	967.00
618.07	953.00
618.32	930.00
618.58	992.00
618.83	993.00
619.09	987.00
619.34	937.00
619.60	964.00
619.86	1027.00
620.11	1050.00
620.37	994.00
620.62	981.00
620.88	999.00
621.13	1007.00
621.39	977.00
621.64	1017.00
621.90	1043.00
622.15	1017.00
622.41	998.00
622.66	1005.00
622.92	1020.00
623.18	1031.00
623.43	977.00
623.69	1025.00
623.94	1059.00
624.20	1065.00
624.45	1046.00
624.71	1056.00
624.96	1063.00
625.22	1100.00
625.47	1070.00
625.73	1079.00
625.98	1094.00
626.24	1083.00
626.49	1072.00
626.75	1116.00
627.00	1175.00
627.26	1192.00
627.51	1175.00
627.77	1155.00
628.02	1142.00
628.28	1174.00
628.53	1140.00
628.79	1181.00
629.05	1208.00
629.30	1196.00
629.56	1196.00
629.81	1233.00
630.07	1267.00
630.32	1317.00
630.58	1285.00
630.83	1251.00
631.09	1257.00
631.34	1294.00
631.60	1311.00
631.85	1308.00
632.11	1326.00
632.36	1323.00
632.62	1285.00
632.87	1374.00
633.13	1431.00
633.38	1423.00
633.64	1408.00
633.89	1426.00
634.15	1452.00
634.40	1478.00
634.66	1400.00
634.91	1461.00
635.17	1512.00
635.42	1480.00
635.68	1374.00
635.93	1368.00
636.18	1413.00
636.44	1446.00
636.69	1445.00
636.95	1474.00
637.20	1544.00
637.46	1522.00
637.71	1489.00
637.97	1496.00
638.22	1486.00
638.48	1492.00
638.73	1492.00
638.99	1610.00
639.24	1626.00
639.50	1527.00
639.75	1414.00
640.01	1414.00
640.26	1446.00
640.52	1479.00
640.77	1442.00
641.03	1444.00
641.28	1453.00
641.54	1426.00
641.79	1371.00
642.04	1380.00
642.30	1376.00
642.55	1378.00
642.81	1310.00
643.06	1317.00
643.32	1355.00
643.57	1345.00
643.83	1267.00
644.08	1188.00
644.34	1198.00
644.59	1212.00
644.85	1133.00
645.10	1121.00
645.35	1164.00
645.61	1162.00
645.86	1122.00
646.12	1108.00
646.37	1115.00
646.63	1069.00
646.88	1005.00
647.14	1037.00
647.39	1073.00
647.65	1076.00
647.90	1011.00
648.15	1019.00
648.41	1046.00
648.66	1058.00
648.92	1016.00
649.17	1015.00
649.43	1028.00
649.68	997.00
649.94	979.00
650.19	971.00
650.44	993.00
650.70	984.00
650.95	926.00
651.21	970.00
651.46	1003.00
651.72	976.00
651.97	948.00
652.23	910.00
652.48	945.00
652.73	958.00
652.99	931.00
653.24	959.00
653.50	949.00
653.75	939.00
654.01	932.00
654.26	930.00
654.51	939.00
654.77	961.00
655.02	926.00
655.28	910.00
655.53	914.00
655.79	931.00
656.04	921.00
656.29	923.00
656.55	917.00
656.80	928.00
657.06	887.00
657.31	899.00
657.56	911.00
657.82	916.00
658.07	889.00
658.33	915.00
658.58	905.00
658.84	933.00
659.09	886.00
659.34	886.00
659.60	912.00
659.85	902.00
660.11	881.00
660.36	889.00
660.61	897.00
660.87	898.00
661.12	858.00
661.38	891.00
661.63	893.00
661.88	910.00
662.14	910.00
662.39	895.00
662.65	923.00
662.90	946.00
663.15	866.00
663.41	888.00
663.66	938.00
663.92	930.00
664.17	878.00
664.42	894.00
664.68	930.00
664.93	912.00
665.19	878.00
665.44	888.00
665.69	872.00
665.95	898.00
666.20	865.00
666.45	890.00
666.71	900.00
666.96	901.00
667.22	860.00
667.47	879.00
667.72	873.00
667.98	895.00
668.23	856.00
668.49	890.00
668.74	916.00
668.99	919.00
669.25	872.00
669.50	879.00
669.75	891.00
670.01	893.00
670.26	841.00
670.52	867.00
670.77	909.00
671.02	895.00
671.28	860.00
671.53	883.00
671.78	918.00
672.04	909.00
672.29	874.00
672.54	864.00
672.80	882.00
673.05	890.00
673.31	859.00
673.56	917.00
673.81	929.00
674.07	906.00
674.32	876.00
674.57	877.00
674.83	886.00
675.08	915.00
675.33	872.00
675.59	877.00
675.84	917.00
676.09	885.00
676.35	873.00
676.60	888.00
676.86	901.00
677.11	941.00
677.36	889.00
677.62	902.00
677.87	929.00
678.12	953.00
678.38	878.00
678.63	887.00
678.88	913.00
679.14	917.00
679.39	845.00
679.64	886.00
679.90	890.00
680.15	905.00
680.40	902.00
680.66	877.00
680.91	895.00
681.16	889.00
681.42	860.00
681.67	882.00
681.92	900.00
682.18	915.00
682.43	859.00
682.68	869.00
682.94	902.00
683.19	893.00
683.44	870.00
683.70	908.00
683.95	900.00
684.20	882.00
684.46	887.00
684.71	894.00
684.96	904.00
685.22	903.00
685.47	876.00
685.72	889.00
685.98	907.00
686.23	859.00
686.48	862.00
686.74	875.00
686.99	937.00
687.24	909.00
687.50	865.00
687.75	863.00
688.00	884.00
688.25	894.00
688.51	866.00
688.76	900.00
689.01	883.00
689.27	903.00
689.52	869.00
689.77	883.00
690.03	867.00
690.28	884.00
690.53	865.00
690.79	892.00
691.04	887.00
691.29	884.00
691.54	836.00
691.80	886.00
692.05	889.00
692.30	900.00
692.56	872.00
692.81	889.00
693.06	884.00
693.32	872.00
693.57	854.00
693.82	876.00
694.07	906.00
694.33	891.00
694.58	864.00
694.83	895.00
695.09	894.00
695.34	906.00
695.59	887.00
695.84	894.00
696.10	915.00
696.35	912.00
696.60	853.00
696.86	868.00
697.11	914.00
697.36	906.00
697.61	860.00
697.87	891.00
698.12	868.00
698.37	899.00
698.63	876.00
698.88	861.00
699.13	890.00
699.38	889.00
699.64	842.00
699.89	873.00
700.14	898.00
700.39	895.00
700.65	885.00
700.90	903.00
701.15	892.00
701.40	905.00
701.66	862.00
701.91	870.00
702.16	882.00
702.42	887.00
702.67	850.00
702.92	867.00
703.17	882.00
703.43	874.00
703.68	873.00
703.93	909.00
704.18	931.00
704.44	881.00
704.69	863.00
704.94	888.00
705.19	882.00
705.45	909.00
705.70	881.00
705.95	881.00
706.20	877.00
706.46	906.00
706.71	894.00
706.96	881.00
707.21	897.00
707.47	895.00
707.72	881.00
707.97	889.00
708.22	907.00
708.48	932.00
708.73	873.00
708.98	846.00
709.23	876.00
709.49	896.00
709.74	866.00
709.99	873.00
710.24	904.00
710.50	889.00
710.75	877.00
711.00	900.00
711.25	909.00
711.50	892.00
711.76	860.00
712.01	868.00
712.26	883.00
712.51	900.00
712.77	863.00
713.02	877.00
713.27	862.00
713.52	880.00
713.78	871.00
714.03	898.00
714.28	869.00
714.53	901.00
714.78	878.00
715.04	891.00
715.29	904.00
715.54	922.00
715.79	862.00
716.05	906.00
716.30	917.00
716.55	905.00
716.80	866.00
717.05	892.00
717.31	905.00
717.56	918.00
717.81	878.00
718.06	861.00
718.31	868.00
718.57	890.00
718.82	870.00
719.07	905.00
719.32	879.00
719.57	898.00
719.83	859.00
720.08	876.00
720.33	876.00
720.58	869.00
720.83	844.00
721.09	915.00
721.34	894.00
721.59	909.00
721.84	866.00
722.09	884.00
722.35	903.00
722.60	885.00
722.85	858.00
723.10	895.00
723.35	868.00
723.61	903.00
723.86	914.00
724.11	891.00
724.36	888.00
724.61	862.00
724.87	859.00
725.12	876.00
725.37	873.00
725.62	868.00
725.87	864.00
726.12	855.00
726.38	867.00
726.63	880.00
726.88	861.00
727.13	882.00
727.38	881.00
727.64	892.00
727.89	852.00
728.14	855.00
728.39	855.00
728.64	888.00
728.89	869.00
729.15	885.00
729.40	901.00
729.65	916.00
729.90	854.00
730.15	889.00
730.40	922.00
730.66	903.00
730.91	876.00
731.16	879.00
731.41	893.00
731.66	885.00
731.91	856.00
732.17	912.00
732.42	901.00
732.67	875.00
732.92	852.00
733.17	892.00
733.42	896.00
733.68	885.00
733.93	844.00
734.18	881.00
734.43	861.00
734.68	890.00
734.93	857.00
735.18	870.00
735.44	906.00
735.69	908.00
735.94	844.00
736.19	876.00
736.44	870.00
736.69	912.00
736.95	861.00
737.20	906.00
737.45	908.00
737.70	901.00
737.95	884.00
738.20	904.00
738.45	909.00
738.70	905.00
738.96	882.00
739.21	898.00
739.46	891.00
739.71	910.00
739.96	875.00
740.21	893.00
740.46	959.00
740.72	924.00
740.97	874.00
741.22	900.00
741.47	874.00
741.72	893.00
741.97	863.00
742.22	871.00
742.47	896.00
742.73	882.00
742.98	861.00
743.23	856.00
743.48	869.00
743.73	899.00
743.98	877.00
744.23	885.00
744.48	902.00
744.74	879.00
744.99	859.00
745.24	910.00
745.49	907.00
745.74	907.00
745.99	853.00
746.24	878.00
746.49	881.00
746.74	882.00
747.00	883.00
747.25	893.00
747.50	852.00
747.75	867.00
748.00	844.00
748.25	881.00
748.50	891.00
748.75	911.00
749.00	910.00
749.26	933.00
749.51	897.00
749.76	906.00
750.01	866.00
750.26	890.00
750.51	920.00
750.76	895.00
751.01	863.00
751.26	867.00
751.51	881.00
751.77	910.00
752.02	880.00
752.27	863.00
752.52	862.00
752.77	896.00
753.02	864.00
753.27	885.00
753.52	881.00
753.77	864.00
754.02	870.00
754.27	880.00
754.52	863.00
754.78	875.00
755.03	859.00
755.28	877.00
755.53	895.00
755.78	902.00
756.03	849.00
756.28	881.00
756.53	889.00
756.78	886.00
757.03	873.00
757.28	898.00
757.53	913.00
757.79	870.00
758.04	857.00
758.29	923.00
758.54	918.00
758.79	917.00
759.04	853.00
759.29	853.00
759.54	866.00
759.79	899.00
760.04	874.00
760.29	886.00
760.54	877.00
760.79	872.00
761.04	850.00
761.29	865.00
761.55	863.00
761.80	888.00
762.05	843.00
762.30	902.00
762.55	904.00
762.80	916.00
763.05	897.00
763.30	900.00
763.55	911.00
763.80	904.00
764.05	859.00
764.30	887.00
764.55	915.00
764.80	885.00
765.05	865.00
765.30	896.00
765.55	888.00
765.80	890.00
766.05	854.00
766.30	885.00
766.56	890.00
766.81	893.00
767.06	874.00
767.31	888.00
767.56	884.00
767.81	884.00
768.06	866.00
768.31	870.00
768.56	884.00
768.81	920.00
769.06	858.00
769.31	878.00
769.56	869.00
769.81	912.00
770.06	862.00
770.31	861.00
770.56	881.00
770.81	859.00
771.06	853.00
771.31	875.00
771.56	877.00
771.81	894.00
772.06	861.00
772.31	901.00
772.56	916.00
772.81	909.00
773.06	857.00
773.31	892.00
773.56	885.00
773.81	867.00
774.06	860.00
774.31	885.00
774.56	890.00
774.81	916.00
775.06	869.00
775.31	907.00
775.56	894.00
775.81	885.00
776.06	844.00
776.31	868.00
776.56	900.00
776.82	891.00
777.07	849.00
777.32	859.00
777.57	871.00
777.82	912.00
778.07	863.00
778.32	874.00
778.57	905.00
778.82	910.00
779.07	869.00
779.32	875.00
779.57	859.00
779.82	887.00
780.07	876.00
780.32	887.00
780.56	892.00
780.81	915.00
781.06	862.00
781.31	871.00
781.56	905.00
781.81	910.00
782.06	845.00
782.31	886.00
782.56	891.00
782.81	920.00
783.06	866.00
783.31	882.00
783.56	881.00
783.81	896.00
784.06	882.00
784.31	900.00
784.56	860.00
784.81	925.00
785.06	878.00
785.31	886.00
785.56	860.00
785.81	860.00
786.06	831.00
786.31	874.00
786.56	862.00
786.81	876.00
787.06	863.00
787.31	896.00
787.56	864.00
787.81	866.00
788.06	853.00
788.31	876.00
788.56	877.00
788.81	896.00
789.06	871.00
789.31	879.00
789.56	875.00
789.81	883.00
790.06	856.00
790.31	892.00
790.56	884.00
790.80	885.00
791.05	854.00
791.30	860.00
791.55	860.00
791.80	886.00
792.05	858.00
792.30	865.00
792.55	873.00
792.80	893.00
793.05	873.00
793.30	872.00
793.55	889.00
793.80	890.00
794.05	851.00
794.30	877.00
794.55	880.00
794.80	911.00
795.05	883.00
795.30	885.00
795.54	859.00
795.79	898.00
796.04	869.00
796.29	883.00
796.54	875.00
796.79	897.00
797.04	877.00
797.29	891.00
797.54	891.00
797.79	890.00
798.04	860.00
798.29	854.00
798.54	855.00
798.79	873.00
799.04	837.00
799.29	880.00
799.53	896.00
799.78	896.00
800.03	865.00
800.28	875.00
800.53	884.00
800.78	928.00
801.03	855.00
801.28	871.00
801.53	888.00
801.78	913.00
802.03	874.00
802.28	881.00
802.52	909.00
802.77	911.00
803.02	889.00
803.27	894.00
803.52	870.00
803.77	894.00
804.02	880.00
804.27	913.00
804.52	890.00
804.77	909.00
805.02	888.00
805.27	898.00
805.51	902.00
805.76	903.00
806.01	857.00
806.26	873.00
806.51	879.00
806.76	905.00
807.01	874.00
807.26	856.00
807.51	873.00
807.76	867.00
808.00	857.00
808.25	890.00
808.50	908.00
808.75	902.00
809.00	856.00
809.25	859.00
809.50	885.00
809.75	925.00
810.00	890.00
810.24	865.00
810.49	841.00
810.74	863.00
810.99	871.00
811.24	881.00
811.49	892.00
811.74	902.00
811.99	841.00
812.24	873.00
812.48	855.00
812.73	862.00
812.98	839.00
813.23	846.00
813.48	872.00
813.73	869.00
813.98	844.00
814.23	877.00
814.47	879.00
814.72	876.00
814.97	846.00
815.22	891.00
815.47	864.00
815.72	868.00
815.97	845.00
816.22	862.00
816.46	867.00
816.71	904.00
816.96	878.00
817.21	897.00
817.46	883.00
817.71	901.00
817.96	885.00
818.20	875.00
818.45	858.00
818.70	897.00
818.95	856.00
819.20	872.00
819.45	876.00
819.70	869.00
819.94	850.00
820.19	895.00
820.44	874.00
820.69	890.00
820.94	846.00
821.19	888.00
821.44	960.00
821.68	958.00
821.93	870.00
822.18	887.00
822.43	913.00
822.68	900.00
822.93	862.00
823.17	881.00
823.42	894.00
823.67	881.00
823.92	846.00
824.17	879.00
824.42	884.00
824.67	913.00
824.91	864.00
825.16	866.00
825.41	876.00
825.66	887.00
825.91	858.00
826.16	883.00
826.40	896.00
826.65	908.00
826.90	861.00
827.15	873.00
827.40	877.00
827.65	908.00
827.89	826.00
828.14	856.00
828.39	890.00
828.64	892.00
828.89	845.00
829.13	866.00
829.38	855.00
829.63	878.00
829.88	848.00
830.13	856.00
830.38	857.00
830.62	878.00
830.87	868.00
831.12	890.00
831.37	898.00
831.62	928.00
831.86	871.00
832.11	862.00
832.36	860.00
832.61	899.00
832.86	875.00
833.10	874.00
833.35	880.00
833.60	897.00
833.85	872.00
834.10	890.00
834.35	915.00
834.59	908.00
834.84	860.00
835.09	894.00
835.34	878.00
835.59	890.00
835.83	893.00
836.08	900.00
836.33	897.00
836.58	903.00
836.83	870.00
837.07	890.00
837.32	912.00
837.57	888.00
837.82	862.00
838.06	888.00
838.31	917.00
838.56	923.00
838.81	859.00
839.06	891.00
839.30	885.00
839.55	904.00
839.80	862.00
840.05	875.00
840.30	903.00
840.54	924.00
840.79	857.00
841.04	889.00
841.29	882.00
841.53	896.00
841.78	864.00
842.03	859.00
842.28	868.00
842.53	888.00
842.77	865.00
843.02	900.00
843.27	881.00
843.52	896.00
843.76	869.00
844.01	867.00
844.26	856.00
844.51	903.00
844.75	872.00
845.00	854.00
845.25	877.00
845.50	904.00
845.75	867.00
845.99	876.00
846.24	875.00
846.49	896.00
846.74	853.00
846.98	859.00
847.23	879.00
847.48	896.00
847.73	854.00
847.97	867.00
848.22	904.00
848.47	901.00
848.72	871.00
848.96	862.00
849.21	904.00
849.46	880.00
849.71	853.00
849.95	872.00
850.20	867.00
850.45	880.00
850.70	846.00
850.94	885.00
851.19	869.00
851.44	873.00
851.69	848.00
851.93	873.00
852.18	886.00
852.43	892.00
852.68	862.00
852.92	890.00
853.17	920.00
853.42	915.00
853.66	886.00
853.91	899.00
854.16	877.00
854.41	931.00
854.65	872.00
854.90	870.00
855.15	869.00
855.40	879.00
855.64	882.00
855.89	881.00
856.14	868.00
856.39	890.00
856.63	856.00
856.88	867.00
857.13	868.00
857.37	882.00
857.62	848.00
857.87	843.00
858.12	858.00
858.36	886.00
858.61	835.00
858.86	871.00
859.10	896.00
859.35	885.00
859.60	859.00
859.85	849.00
860.09	848.00
860.34	881.00
860.59	869.00
860.83	887.00
861.08	876.00
861.33	911.00
861.58	852.00
861.82	864.00
862.07	884.00
862.32	878.00
862.56	841.00
862.81	871.00
863.06	875.00
863.30	878.00
863.55	867.00
863.80	893.00
864.05	873.00
864.29	870.00
864.54	891.00
864.79	893.00
865.03	895.00
865.28	916.00
865.53	862.00
865.77	850.00
866.02	902.00
866.27	914.00
866.51	881.00
866.76	836.00
867.01	856.00
867.26	907.00
867.50	859.00
867.75	859.00
868.00	886.00
868.24	891.00
868.49	848.00
868.74	868.00
868.98	868.00
869.23	880.00
869.48	888.00
869.72	878.00
869.97	875.00
870.22	910.00
870.46	860.00
870.71	879.00
870.96	872.00
871.20	897.00
871.45	850.00
871.70	873.00
871.94	917.00
872.19	905.00
872.44	861.00
872.68	862.00
872.93	881.00
873.18	892.00
873.42	875.00
873.67	876.00
873.92	899.00
874.16	876.00
874.41	871.00
874.66	880.00
874.90	900.00
875.15	924.00
875.40	898.00
875.64	897.00
875.89	886.00
876.14	905.00
876.38	874.00
876.63	879.00
876.88	890.00
877.12	890.00
877.37	862.00
877.62	917.00
877.86	885.00
878.11	888.00
878.36	844.00
878.60	887.00
878.85	892.00
879.09	884.00
879.34	860.00
879.59	873.00
879.83	890.00
880.08	918.00
880.33	879.00
880.57	882.00
880.82	896.00
881.07	894.00
881.31	860.00
881.56	889.00
881.80	865.00
882.05	896.00
882.30	865.00
882.54	870.00
882.79	908.00
883.04	929.00
883.28	903.00
883.53	896.00
883.77	906.00
884.02	909.00
884.27	854.00
884.51	858.00
884.76	872.00
885.01	896.00
885.25	845.00
885.50	869.00
885.74	856.00
885.99	914.00
886.24	868.00
886.48	884.00
886.73	904.00
886.98	913.00
887.22	868.00
887.47	891.00
887.71	888.00
887.96	897.00
888.21	885.00
888.45	874.00
888.70	881.00
888.94	908.00
889.19	835.00
889.44	857.00
889.68	892.00
889.93	901.00
890.17	873.00
890.42	866.00
890.67	896.00
890.91	982.00
891.16	867.00
891.40	853.00
891.65	854.00
891.90	907.00
892.14	840.00
892.39	870.00
892.63	891.00
892.88	920.00
893.13	867.00
893.37	854.00
893.62	866.00
893.86	887.00
894.11	858.00
894.36	857.00
894.60	866.00
894.85	873.00
895.09	855.00
895.34	915.00
895.59	902.00
895.83	892.00
896.08	849.00
896.32	843.00
896.57	883.00
896.81	890.00
897.06	874.00
897.31	862.00
897.55	885.00
897.80	886.00
898.04	842.00
898.29	857.00
898.53	867.00
898.78	896.00
899.03	869.00
899.27	850.00
899.52	892.00
899.76	912.00
900.01	866.00
900.25	884.00
900.50	885.00
900.75	898.00
900.99	880.00
901.24	933.00
901.48	891.00
901.73	893.00
901.97	848.00
902.22	867.00
902.47	887.00
902.71	888.00
902.96	840.00
903.20	871.00
903.45	892.00
903.69	899.00
903.94	872.00
904.18	866.00
904.43	894.00
904.68	897.00
904.92	832.00
905.17	859.00
905.41	877.00
905.66	907.00
905.90	900.00
906.15	879.00
906.39	885.00
906.64	881.00
906.88	835.00
907.13	874.00
907.38	906.00
907.62	913.00
907.87	851.00
908.11	889.00
908.36	855.00
908.60	881.00
908.85	821.00
909.09	861.00
909.34	867.00
909.58	892.00
909.83	865.00
910.07	867.00
910.32	924.00
910.56	922.00
910.81	857.00
911.06	899.00
911.30	904.00
911.55	886.00
911.79	863.00
912.04	861.00
912.28	861.00
912.53	899.00
912.77	880.00
913.02	874.00
913.26	878.00
913.51	890.00
913.75	856.00
914.00	866.00
914.24	878.00
914.49	880.00
914.73	853.00
914.98	893.00
915.22	912.00
915.47	903.00
915.71	862.00
915.96	884.00
916.20	876.00
916.45	860.00
916.69	843.00
916.94	863.00
917.18	885.00
917.43	894.00
917.67	861.00
917.92	861.00
918.16	894.00
918.41	911.00
918.65	856.00
918.90	858.00
919.14	861.00
919.39	870.00
919.63	847.00
919.88	866.00
920.12	889.00
920.37	902.00
920.61	851.00
920.86	867.00
921.10	901.00
921.35	870.00
921.59	839.00
921.84	870.00
922.08	903.00
922.33	911.00
922.57	841.00
922.82	843.00
923.06	870.00
923.31	904.00
923.55	832.00
923.80	869.00
924.04	858.00
924.29	886.00
924.53	853.00
924.78	868.00
925.02	874.00
925.27	888.00
925.51	865.00
925.76	896.00
926.00	889.00
926.25	885.00
926.49	862.00
926.73	889.00
926.98	890.00
927.22	914.00
927.47	883.00
927.71	873.00
927.96	909.00
928.20	895.00
928.45	871.00
928.69	913.00
928.94	905.00
929.18	886.00
929.43	890.00
929.67	875.00
929.91	892.00
930.16	889.00
930.40	840.00
930.65	846.00
930.89	875.00
931.14	919.00
931.38	889.00
931.63	896.00
931.87	887.00
932.12	893.00
932.36	859.00
932.60	880.00
932.85	909.00
933.09	870.00
933.34	844.00
933.58	898.00
933.83	882.00
934.07	905.00
934.32	879.00
934.56	884.00
934.80	930.00
935.05	935.00
935.29	895.00
935.54	901.00
935.78	881.00
936.03	917.00
936.27	857.00
936.52	856.00
936.76	874.00
937.00	886.00
937.25	849.00
937.49	888.00
937.74	911.00
937.98	912.00
938.23	848.00
938.47	857.00
938.71	885.00
938.96	883.00
939.20	844.00
939.45	849.00
939.69	881.00
939.94	900.00
940.18	843.00
940.42	868.00
940.67	891.00
940.91	888.00
941.16	865.00
941.40	849.00
941.64	873.00
941.89	881.00
942.13	851.00
942.38	889.00
942.62	944.00
942.87	925.00
943.11	886.00
943.35	875.00
943.60	883.00
943.84	913.00
944.09	880.00
944.33	888.00
944.57	898.00
944.82	880.00
945.06	863.00
945.31	889.00
945.55	880.00
945.79	907.00
946.04	872.00
946.28	869.00
946.53	892.00
946.77	896.00
947.01	833.00
947.26	882.00
947.50	872.00
947.75	889.00
947.99	874.00
948.23	890.00
948.48	896.00
948.72	876.00
948.97	854.00
949.21	872.00
949.45	883.00
949.70	914.00
949.94	886.00
950.18	878.00
950.43	878.00
950.67	888.00
950.92	851.00
951.16	849.00
951.40	872.00
951.65	885.00
951.89	881.00
952.13	881.00
952.38	896.00
952.62	902.00
952.87	852.00
953.11	890.00
953.35	905.00
953.60	908.00
953.84	823.00
954.08	830.00
954.33	877.00
954.57	868.00
954.82	868.00
955.06	856.00
955.30	857.00
955.55	878.00
955.79	868.00
956.03	867.00
956.28	875.00
956.52	896.00
956.76	881.00
957.01	883.00
957.25	871.00
957.50	888.00
957.74	856.00
957.98	854.00
958.23	888.00
958.47	882.00
958.71	892.00
958.96	897.00
959.20	925.00
959.44	887.00
959.69	863.00
959.93	885.00
960.17	878.00
960.42	887.00
960.66	865.00
960.90	889.00
961.15	878.00
961.39	878.00
961.64	842.00
961.88	860.00
962.12	901.00
962.37	894.00
962.61	852.00
962.85	853.00
963.10	891.00
963.34	900.00
963.58	856.00
963.83	871.00
964.07	899.00
964.31	884.00
964.56	862.00
964.80	861.00
965.04	881.00
965.29	881.00
965.53	865.00
965.77	859.00
966.02	842.00
966.26	863.00
966.50	843.00
966.74	874.00
966.99	906.00
967.23	905.00
967.47	874.00
967.72	887.00
967.96	891.00
968.20	884.00
968.45	844.00
968.69	854.00
968.93	861.00
969.18	903.00
969.42	888.00
969.66	877.00
969.91	865.00
970.15	879.00
970.39	861.00
970.64	881.00
970.88	893.00
971.12	904.00
971.36	873.00
971.61	859.00
971.85	882.00
972.09	882.00
972.34	874.00
972.58	897.00
972.82	898.00
973.07	905.00
973.31	846.00
973.55	870.00
973.79	899.00
974.04	926.00
974.28	884.00
974.52	893.00
974.77	884.00
975.01	894.00
975.25	858.00
975.50	880.00
975.74	891.00
975.98	904.00
976.22	889.00
976.47	861.00
976.71	870.00
976.95	897.00
977.20	883.00
977.44	882.00
977.68	882.00
977.92	903.00
978.17	858.00
978.41	866.00
978.65	885.00
978.90	868.00
979.14	881.00
979.38	884.00
979.62	873.00
979.87	870.00
980.11	848.00
980.35	873.00
980.59	882.00
980.84	904.00
981.08	870.00
981.32	861.00
981.57	890.00
981.81	894.00
982.05	880.00
982.29	864.00
982.54	879.00
982.78	892.00
983.02	867.00
983.26	873.00
983.51	904.00
983.75	914.00
983.99	854.00
984.23	897.00
984.48	897.00
984.72	919.00
984.96	856.00
985.20	873.00
985.45	936.00
985.69	902.00
985.93	869.00
986.17	893.00
986.42	881.00
986.66	884.00
986.90	825.00
987.14	853.00
987.39	893.00
987.63	862.00
987.87	859.00
988.11	863.00
988.36	888.00
988.60	900.00
988.84	901.00
989.08	870.00
989.33	907.00
989.57	900.00
989.81	849.00
990.05	859.00
990.30	873.00
990.54	858.00
990.78	857.00
991.02	861.00
991.27	884.00
991.51	889.00
991.75	863.00
991.99	902.00
992.23	877.00
992.48	866.00
992.72	865.00
992.96	862.00
993.20	876.00
993.45	887.00
993.69	885.00
993.93	849.00
994.17	895.00
994.41	888.00
994.66	853.00
994.90	868.00
995.14	913.00
995.38	886.00
995.63	854.00
995.87	872.00
996.11	912.00
996.35	900.00
996.59	853.00
996.84	866.00
997.08	893.00
997.32	889.00
997.56	876.00
997.80	843.00
998.05	847.00
998.29	860.00
998.53	853.00
998.77	877.00
999.01	904.00
999.26	893.00
999.50	850.00
999.74	842.00
999.98	870.00
1000.22	892.00
1000.47	852.00
1000.71	864.00
1000.95	897.00
1001.19	891.00
1001.43	857.00
1001.68	861.00
1001.92	878.00
1002.16	876.00
1002.40	837.00
1002.64	852.00
1002.89	872.00
1003.13	898.00
1003.37	890.00
1003.61	861.00
1003.85	889.00
1004.10	872.00
1004.34	849.00
1004.58	853.00
1004.82	886.00
1005.06	883.00
1005.30	865.00
1005.55	859.00
1005.79	894.00
1006.03	882.00
1006.27	875.00
1006.51	889.00
1006.76	891.00
1007.00	909.00
1007.24	880.00
1007.48	865.00
1007.72	898.00
1007.96	884.00
1008.21	861.00
1008.45	896.00
1008.69	892.00
1008.93	905.00
1009.17	869.00
1009.41	916.00
1009.66	921.00
1009.90	897.00
1010.14	855.00
1010.38	876.00
1010.62	900.00
1010.86	910.00
1011.10	863.00
1011.35	870.00
1011.59	886.00
1011.83	860.00
1012.07	841.00
1012.31	869.00
1012.55	884.00
1012.80	895.00
1013.04	870.00
1013.28	882.00
1013.52	880.00
1013.76	902.00
1014.00	859.00
1014.24	846.00
1014.49	876.00
1014.73	911.00
1014.97	901.00
1015.21	890.00
1015.45	899.00
1015.69	881.00
1015.93	874.00
1016.18	862.00
1016.42	907.00
1016.66	896.00
1016.90	850.00
1017.14	854.00
1017.38	865.00
1017.62	887.00
1017.87	869.00
1018.11	872.00
1018.35	890.00
1018.59	896.00
1018.83	845.00
1019.07	880.00
1019.31	914.00
1019.55	917.00
1019.80	873.00
1020.04	882.00
1020.28	874.00
1020.52	882.00
1020.76	865.00
1021.00	848.00
1021.24	862.00
1021.48	859.00
1021.73	864.00
1021.97	877.00
1022.21	873.00
1022.45	893.00
1022.69	856.00
1022.93	837.00
1023.17	865.00
1023.41	921.00
1023.65	876.00
1023.90	888.00
1024.14	900.00
1024.38	894.00
1024.62	843.00
1024.86	859.00
1025.10	916.00
1025.34	872.00
1025.58	838.00
1025.82	865.00
1026.07	897.00
1026.31	886.00
1026.55	837.00
1026.79	841.00
1027.03	887.00
1027.27	894.00
1027.51	839.00
1027.75	834.00
1027.99	852.00
1028.23	926.00
1028.47	883.00
1028.72	867.00
1028.96	892.00
1029.20	892.00
1029.44	885.00
1029.68	880.00
1029.92	885.00
1030.16	902.00
1030.40	842.00
1030.64	866.00
1030.88	870.00
1031.12	863.00
1031.37	818.00
1031.61	868.00
1031.85	921.00
1032.09	906.00
1032.33	860.00
1032.57	915.00
1032.81	874.00
1033.05	890.00
1033.29	867.00
1033.53	868.00
1033.77	930.00
1034.01	933.00
1034.25	891.00
1034.50	894.00
1034.74	909.00
1034.98	925.00
1035.22	876.00
1035.46	902.00
1035.70	930.00
1035.94	913.00
1036.18	876.00
1036.42	863.00
1036.66	864.00
1036.90	890.00
1037.14	845.00
1037.38	866.00
1037.62	896.00
1037.86	874.00
1038.10	854.00
1038.35	857.00
1038.59	888.00
1038.83	907.00
1039.07	886.00
1039.31	886.00
1039.55	869.00
1039.79	878.00
1040.03	838.00
1040.27	849.00
1040.51	893.00
1040.75	911.00
1040.99	881.00
1041.23	896.00
1041.47	897.00
1041.71	920.00
1041.95	871.00
1042.19	869.00
1042.43	913.00
1042.67	915.00
1042.91	868.00
1043.15	860.00
1043.39	905.00
1043.64	895.00
1043.88	857.00
1044.12	901.00
1044.36	939.00
1044.60	925.00
1044.84	868.00
1045.08	886.00
1045.32	882.00
1045.56	897.00
1045.80	878.00
1046.04	863.00
1046.28	915.00
1046.52	912.00
1046.76	846.00
1047.00	853.00
1047.24	887.00
1047.48	885.00
1047.72	879.00
1047.96	873.00
1048.20	884.00
1048.44	874.00
1048.68	842.00
1048.92	869.00
1049.16	887.00
1049.40	896.00
1049.64	863.00
1049.88	897.00
1050.12	913.00
1050.36	918.00
1050.60	869.00
1050.84	888.00
1051.08	888.00
1051.32	880.00
1051.56	884.00
1051.80	883.00
1052.04	897.00
1052.28	914.00
1052.52	853.00
1052.76	846.00
1053.00	872.00
1053.24	892.00
1053.48	844.00
1053.72	858.00
1053.96	873.00
1054.20	890.00
1054.44	886.00
1054.68	908.00
1054.92	905.00
1055.16	848.00
1055.40	858.00
1055.64	893.00
1055.88	924.00
1056.12	921.00
1056.36	843.00
1056.60	880.00
1056.84	901.00
1057.08	870.00
1057.32	862.00
1057.56	868.00
1057.80	876.00
1058.04	922.00
1058.28	849.00
1058.52	866.00
1058.76	908.00
1059.00	911.00
1059.24	848.00
1059.48	853.00
1059.72	887.00
1059.96	872.00
1060.20	885.00
1060.44	897.00
1060.68	923.00
1060.92	889.00
1061.16	838.00
1061.40	857.00
1061.64	896.00
1061.88	884.00
1062.11	867.00
1062.35	863.00
1062.59	876.00
1062.83	904.00
1063.07	863.00
1063.31	845.00
1063.55	873.00
1063.79	900.00
1064.03	862.00
1064.27	859.00
1064.51	875.00
1064.75	893.00
1064.99	881.00
1065.23	865.00
1065.47	870.00
1065.71	906.00
1065.95	882.00
1066.19	880.00
1066.43	905.00
1066.67	902.00
1066.91	897.00
1067.15	863.00
1067.38	868.00
1067.62	893.00
1067.86	861.00
1068.10	891.00
1068.34	929.00
1068.58	938.00
1068.82	879.00
1069.06	841.00
1069.30	869.00
1069.54	906.00
1069.78	893.00
1070.02	869.00
1070.26	909.00
1070.50	921.00
1070.74	868.00
1070.98	880.00
1071.21	888.00
1071.45	878.00
1071.69	863.00
1071.93	874.00
1072.17	897.00
1072.41	926.00
1072.65	894.00
1072.89	894.00
1073.13	884.00
1073.37	882.00
1073.61	852.00
1073.85	873.00
1074.09	867.00
1074.32	856.00
1074.56	868.00
1074.80	944.00
1075.04	1145.00
1075.28	997.00
1075.52	858.00
1075.76	874.00
1076.00	911.00
1076.24	888.00
1076.48	888.00
1076.72	893.00
1076.96	910.00
1077.19	899.00
1077.43	849.00
1077.67	896.00
1077.91	896.00
1078.15	860.00
1078.39	865.00
1078.63	867.00
1078.87	881.00
1079.11	894.00
1079.35	849.00
1079.58	855.00
1079.82	887.00
1080.06	869.00
1080.30	836.00
1080.54	886.00
1080.78	908.00
1081.02	885.00
1081.26	871.00
1081.50	883.00
1081.74	899.00
1081.97	896.00
1082.21	869.00
1082.45	877.00
1082.69	867.00
1082.93	868.00
1083.17	864.00
1083.41	861.00
1083.65	900.00
1083.88	922.00
1084.12	891.00
1084.36	889.00
1084.60	893.00
1084.84	900.00
1085.08	851.00
1085.32	867.00
1085.56	923.00
1085.80	898.00
1086.03	866.00
1086.27	851.00
1086.51	885.00
1086.75	910.00
1086.99	871.00
1087.23	855.00
1087.47	896.00
1087.70	893.00
1087.94	868.00
1088.18	908.00
1088.42	929.00
1088.66	887.00
1088.90	853.00
1089.14	856.00
1089.38	878.00
1089.61	907.00
1089.85	865.00
1090.09	851.00
1090.33	909.00
1090.57	918.00
1090.81	826.00
1091.05	844.00
1091.28	892.00
1091.52	903.00
1091.76	854.00
1092.00	875.00
1092.24	902.00
1092.48	923.00
1092.71	853.00
1092.95	888.00
1093.19	892.00
1093.43	896.00
1093.67	832.00
1093.91	869.00
1094.15	890.00
1094.38	903.00
1094.62	856.00
1094.86	858.00
1095.10	882.00
1095.34	888.00
1095.58	858.00
1095.81	875.00
1096.05	898.00
1096.29	921.00
1096.53	843.00
1096.77	869.00
1097.01	872.00
1097.24	905.00
1097.48	865.00
1097.72	887.00
1097.96	899.00
1098.20	912.00
1098.44	842.00
1098.67	842.00
1098.91	890.00
1099.15	899.00
1099.39	856.00
1099.63	866.00
1099.86	886.00
1100.10	876.00
1100.34	862.00
1100.58	864.00
1100.82	884.00
1101.06	886.00
1101.29	845.00
1101.53	873.00
1101.77	917.00
1102.01	889.00
1102.25	862.00
1102.48	884.00
1102.72	930.00
1102.96	898.00
1103.20	841.00
1103.44	867.00
1103.67	868.00
1103.91	885.00
1104.15	837.00
1104.39	857.00
1104.63	879.00
1104.86	865.00
1105.10	853.00
1105.34	898.00
1105.58	876.00
1105.82	882.00
1106.05	864.00
1106.29	883.00
1106.53	883.00
1106.77	911.00
1107.01	850.00
1107.24	890.00
1107.48	916.00
1107.72	910.00
1107.96	840.00
1108.20	863.00
1108.43	876.00
1108.67	879.00
1108.91	866.00
1109.15	851.00
1109.39	883.00
1109.62	890.00
1109.86	848.00
1110.10	852.00
1110.34	918.00
1110.57	940.00
1110.81	861.00
1111.05	865.00
1111.29	912.00
1111.53	918.00
1111.76	876.00
1112.00	911.00
1112.24	927.00
1112.48	900.00
1112.71	854.00
1112.95	874.00
1113.19	912.00
1113.43	892.00
1113.66	829.00
1113.90	871.00
1114.14	900.00
1114.38	900.00
1114.62	848.00
1114.85	905.00
1115.09	896.00
1115.33	934.00
1115.57	887.00
1115.80	849.00
1116.04	884.00
1116.28	897.00
1116.52	880.00
1116.75	860.00
1116.99	901.00
1117.23	915.00
1117.47	907.00
1117.70	904.00
1117.94	953.00
1118.18	877.00
1118.42	862.00
1118.65	884.00
1118.89	893.00
1119.13	883.00
1119.37	856.00
1119.60	882.00
1119.84	902.00
>>>>>End Processed Spectral Data<<<<<
