SpectraSuite Data File
++++++++++++++++++++++++++++++++++++
Date: Fri Dec 06 15:49:33 CET 2024
User: student
Dark Spectrum Present: No
Reference Spectrum Present: No
Number of Sampled Component Spectra: 1
Spectrometers: HR4C155
Integration Time (usec): 100000 (HR4C155)
Spectra Averaged: 1 (HR4C155)
Boxcar Smoothing: 0 (HR4C155)
Correct for Electrical Dark: No (HR4C155)
Strobe/Lamp Enabled: No (HR4C155)
Correct for Detector Non-linearity: No (HR4C155)
Correct for Stray Light: No (HR4C155)
Number of Pixels in Processed Spectrum: 3648
>>>>>Begin Processed Spectral Data<<<<<
195.39	688.00
195.66	688.00
195.93	688.00
196.20	667.00
196.46	711.00
196.73	819.00
197.00	828.00
197.27	817.00
197.54	861.00
197.81	864.00
198.08	857.00
198.35	890.00
198.61	893.00
198.88	866.00
199.15	853.00
199.42	872.00
199.69	902.00
199.96	866.00
200.23	871.00
200.49	892.00
200.76	901.00
201.03	884.00
201.30	881.00
201.57	919.00
201.84	942.00
202.11	886.00
202.38	905.00
202.64	908.00
202.91	922.00
203.18	864.00
203.45	940.00
203.72	1008.00
203.99	924.00
204.25	923.00
204.52	905.00
204.79	930.00
205.06	942.00
205.33	885.00
205.60	906.00
205.87	934.00
206.13	930.00
206.40	909.00
206.67	897.00
206.94	925.00
207.21	923.00
207.48	920.00
207.75	910.00
208.01	958.00
208.28	938.00
208.55	879.00
208.82	901.00
209.09	912.00
209.36	935.00
209.62	909.00
209.89	935.00
210.16	937.00
210.43	955.00
210.70	898.00
210.97	911.00
211.23	935.00
211.50	964.00
211.77	901.00
212.04	903.00
212.31	908.00
212.58	939.00
212.84	902.00
213.11	918.00
213.38	890.00
213.65	915.00
213.92	887.00
214.18	897.00
214.45	946.00
214.72	953.00
214.99	885.00
215.26	909.00
215.53	891.00
215.79	926.00
216.06	926.00
216.33	917.00
216.60	891.00
216.87	938.00
217.13	871.00
217.40	883.00
217.67	923.00
217.94	950.00
218.21	901.00
218.48	939.00
218.74	1002.00
219.01	949.00
219.28	871.00
219.55	882.00
219.82	917.00
220.08	928.00
220.35	891.00
220.62	905.00
220.89	948.00
221.16	976.00
221.42	935.00
221.69	925.00
221.96	918.00
222.23	947.00
222.50	941.00
222.76	936.00
223.03	926.00
223.30	914.00
223.57	882.00
223.84	874.00
224.10	888.00
224.37	913.00
224.64	879.00
224.91	899.00
225.18	943.00
225.44	953.00
225.71	900.00
225.98	921.00
226.25	948.00
226.51	970.00
226.78	898.00
227.05	896.00
227.32	910.00
227.59	930.00
227.85	914.00
228.12	902.00
228.39	945.00
228.66	953.00
228.92	965.00
229.19	954.00
229.46	944.00
229.73	913.00
230.00	888.00
230.26	897.00
230.53	943.00
230.80	928.00
231.07	862.00
231.33	887.00
231.60	926.00
231.87	928.00
232.14	906.00
232.41	930.00
232.67	927.00
232.94	943.00
233.21	893.00
233.48	909.00
233.74	929.00
234.01	901.00
234.28	885.00
234.55	898.00
234.81	909.00
235.08	968.00
235.35	903.00
235.62	894.00
235.88	900.00
236.15	933.00
236.42	896.00
236.69	908.00
236.95	935.00
237.22	908.00
237.49	896.00
237.76	901.00
238.02	965.00
238.29	965.00
238.56	898.00
238.83	898.00
239.09	891.00
239.36	947.00
239.63	907.00
239.90	909.00
240.16	949.00
240.43	983.00
240.70	912.00
240.97	894.00
241.23	914.00
241.50	936.00
241.77	906.00
242.04	926.00
242.30	889.00
242.57	912.00
242.84	882.00
243.11	887.00
243.37	877.00
243.64	947.00
243.91	919.00
244.18	902.00
244.44	893.00
244.71	894.00
244.98	915.00
245.24	916.00
245.51	924.00
245.78	952.00
246.05	884.00
246.31	897.00
246.58	934.00
246.85	901.00
247.12	892.00
247.38	932.00
247.65	931.00
247.92	929.00
248.18	891.00
248.45	915.00
248.72	901.00
248.99	919.00
249.25	879.00
249.52	900.00
249.79	933.00
250.05	936.00
250.32	904.00
250.59	895.00
250.86	910.00
251.12	919.00
251.39	876.00
251.66	904.00
251.92	935.00
252.19	934.00
252.46	906.00
252.73	934.00
252.99	957.00
253.26	942.00
253.53	873.00
253.79	914.00
254.06	920.00
254.33	918.00
254.60	864.00
254.86	903.00
255.13	948.00
255.40	952.00
255.66	908.00
255.93	935.00
256.20	946.00
256.46	956.00
256.73	915.00
257.00	934.00
257.26	941.00
257.53	942.00
257.80	919.00
258.07	926.00
258.33	955.00
258.60	949.00
258.87	892.00
259.13	919.00
259.40	887.00
259.67	935.00
259.93	904.00
260.20	920.00
260.47	951.00
260.73	909.00
261.00	881.00
261.27	907.00
261.53	923.00
261.80	930.00
262.07	881.00
262.34	898.00
262.60	889.00
262.87	917.00
263.14	888.00
263.40	944.00
263.67	923.00
263.94	911.00
264.20	888.00
264.47	885.00
264.74	899.00
265.00	893.00
265.27	863.00
265.54	885.00
265.80	937.00
266.07	950.00
266.34	886.00
266.60	900.00
266.87	923.00
267.14	937.00
267.40	887.00
267.67	886.00
267.94	935.00
268.20	920.00
268.47	872.00
268.74	872.00
269.00	913.00
269.27	899.00
269.54	867.00
269.80	885.00
270.07	940.00
270.33	915.00
270.60	897.00
270.87	919.00
271.13	895.00
271.40	913.00
271.67	866.00
271.93	865.00
272.20	900.00
272.47	884.00
272.73	845.00
273.00	901.00
273.27	917.00
273.53	946.00
273.80	887.00
274.07	878.00
274.33	890.00
274.60	927.00
274.86	887.00
275.13	897.00
275.40	913.00
275.66	956.00
275.93	915.00
276.20	907.00
276.46	918.00
276.73	912.00
277.00	888.00
277.26	905.00
277.53	924.00
277.79	919.00
278.06	904.00
278.33	953.00
278.59	939.00
278.86	904.00
279.13	890.00
279.39	918.00
279.66	956.00
279.93	952.00
280.19	894.00
280.46	891.00
280.72	898.00
280.99	933.00
281.26	885.00
281.52	901.00
281.79	931.00
282.05	924.00
282.32	886.00
282.59	901.00
282.85	950.00
283.12	927.00
283.39	894.00
283.65	899.00
283.92	917.00
284.18	933.00
284.45	907.00
284.72	916.00
284.98	922.00
285.25	914.00
285.51	935.00
285.78	923.00
286.05	910.00
286.31	917.00
286.58	876.00
286.84	890.00
287.11	908.00
287.38	928.00
287.64	911.00
287.91	893.00
288.17	926.00
288.44	924.00
288.71	859.00
288.97	894.00
289.24	926.00
289.50	915.00
289.77	914.00
290.04	878.00
290.30	893.00
290.57	935.00
290.83	881.00
291.10	882.00
291.37	901.00
291.63	904.00
291.90	929.00
292.16	908.00
292.43	912.00
292.70	897.00
292.96	850.00
293.23	878.00
293.49	903.00
293.76	927.00
294.02	889.00
294.29	906.00
294.56	914.00
294.82	933.00
295.09	889.00
295.35	872.00
295.62	932.00
295.89	947.00
296.15	887.00
296.42	889.00
296.68	903.00
296.95	905.00
297.21	898.00
297.48	883.00
297.75	925.00
298.01	961.00
298.28	914.00
298.54	904.00
298.81	903.00
299.07	929.00
299.34	873.00
299.61	910.00
299.87	938.00
300.14	910.00
300.40	913.00
300.67	913.00
300.93	924.00
301.20	946.00
301.46	876.00
301.73	893.00
302.00	917.00
302.26	905.00
302.53	920.00
302.79	914.00
303.06	932.00
303.32	963.00
303.59	877.00
303.85	883.00
304.12	892.00
304.39	925.00
304.65	901.00
304.92	905.00
305.18	917.00
305.45	926.00
305.71	894.00
305.98	917.00
306.24	911.00
306.51	888.00
306.77	876.00
307.04	901.00
307.31	934.00
307.57	942.00
307.84	869.00
308.10	901.00
308.37	894.00
308.63	902.00
308.90	890.00
309.16	913.00
309.43	944.00
309.69	912.00
309.96	896.00
310.22	888.00
310.49	925.00
310.76	943.00
311.02	875.00
311.29	888.00
311.55	906.00
311.82	919.00
312.08	912.00
312.35	928.00
312.61	937.00
312.88	942.00
313.14	894.00
313.41	887.00
313.67	886.00
313.94	920.00
314.20	906.00
314.47	909.00
314.73	893.00
315.00	895.00
315.26	867.00
315.53	901.00
315.79	917.00
316.06	919.00
316.32	888.00
316.59	897.00
316.85	897.00
317.12	911.00
317.39	866.00
317.65	878.00
317.92	912.00
318.18	915.00
318.45	888.00
318.71	932.00
318.98	946.00
319.24	924.00
319.51	899.00
319.77	902.00
320.04	905.00
320.30	906.00
320.57	884.00
320.83	881.00
321.10	877.00
321.36	886.00
321.63	866.00
321.89	899.00
322.16	957.00
322.42	931.00
322.69	870.00
322.95	886.00
323.22	924.00
323.48	929.00
323.75	879.00
324.01	891.00
324.28	916.00
324.54	921.00
324.80	890.00
325.07	916.00
325.33	926.00
325.60	910.00
325.86	867.00
326.13	909.00
326.39	920.00
326.66	903.00
326.92	863.00
327.19	895.00
327.45	933.00
327.72	946.00
327.98	891.00
328.25	881.00
328.51	917.00
328.78	902.00
329.04	885.00
329.31	906.00
329.57	915.00
329.84	913.00
330.10	872.00
330.37	892.00
330.63	941.00
330.89	962.00
331.16	896.00
331.42	903.00
331.69	930.00
331.95	926.00
332.22	923.00
332.48	930.00
332.75	921.00
333.01	898.00
333.28	895.00
333.54	900.00
333.81	914.00
334.07	924.00
334.34	893.00
334.60	901.00
334.86	959.00
335.13	964.00
335.39	904.00
335.66	908.00
335.92	945.00
336.19	935.00
336.45	847.00
336.72	885.00
336.98	912.00
337.24	923.00
337.51	861.00
337.77	894.00
338.04	919.00
338.30	904.00
338.57	871.00
338.83	897.00
339.10	930.00
339.36	929.00
339.63	890.00
339.89	872.00
340.15	887.00
340.42	921.00
340.68	901.00
340.95	907.00
341.21	901.00
341.48	922.00
341.74	868.00
342.00	877.00
342.27	914.00
342.53	933.00
342.80	893.00
343.06	901.00
343.33	900.00
343.59	926.00
343.85	887.00
344.12	911.00
344.38	964.00
344.65	947.00
344.91	890.00
345.18	894.00
345.44	898.00
345.70	891.00
345.97	842.00
346.23	884.00
346.50	927.00
346.76	922.00
347.03	893.00
347.29	894.00
347.55	916.00
347.82	910.00
348.08	869.00
348.35	888.00
348.61	955.00
348.87	920.00
349.14	875.00
349.40	869.00
349.67	924.00
349.93	924.00
350.20	893.00
350.46	907.00
350.72	925.00
350.99	915.00
351.25	886.00
351.52	889.00
351.78	890.00
352.04	908.00
352.31	905.00
352.57	895.00
352.84	870.00
353.10	900.00
353.36	915.00
353.63	899.00
353.89	892.00
354.16	897.00
354.42	881.00
354.68	887.00
354.95	935.00
355.21	936.00
355.48	879.00
355.74	920.00
356.00	942.00
356.27	948.00
356.53	877.00
356.80	881.00
357.06	916.00
357.32	922.00
357.59	931.00
357.85	936.00
358.11	949.00
358.38	913.00
358.64	901.00
358.91	912.00
359.17	906.00
359.43	922.00
359.70	903.00
359.96	908.00
360.22	925.00
360.49	900.00
360.75	906.00
361.02	885.00
361.28	882.00
361.54	922.00
361.81	866.00
362.07	891.00
362.33	905.00
362.60	892.00
362.86	886.00
363.13	906.00
363.39	933.00
363.65	933.00
363.92	846.00
364.18	854.00
364.44	907.00
364.71	925.00
364.97	876.00
365.24	883.00
365.50	928.00
365.76	944.00
366.03	893.00
366.29	917.00
366.55	935.00
366.82	912.00
367.08	879.00
367.34	912.00
367.61	918.00
367.87	919.00
368.13	889.00
368.40	896.00
368.66	967.00
368.93	919.00
369.19	857.00
369.45	869.00
369.72	913.00
369.98	896.00
370.24	846.00
370.51	880.00
370.77	919.00
371.03	895.00
371.30	874.00
371.56	914.00
371.82	930.00
372.09	918.00
372.35	909.00
372.61	893.00
372.88	899.00
373.14	921.00
373.40	890.00
373.67	906.00
373.93	918.00
374.19	925.00
374.46	889.00
374.72	875.00
374.98	919.00
375.25	921.00
375.51	905.00
375.77	930.00
376.04	919.00
376.30	912.00
376.56	859.00
376.83	890.00
377.09	933.00
377.35	914.00
377.62	908.00
377.88	891.00
378.14	896.00
378.41	922.00
378.67	887.00
378.93	891.00
379.20	935.00
379.46	903.00
379.72	875.00
379.99	878.00
380.25	885.00
380.51	875.00
380.77	866.00
381.04	891.00
381.30	930.00
381.56	935.00
381.83	901.00
382.09	865.00
382.35	895.00
382.62	921.00
382.88	905.00
383.14	888.00
383.41	891.00
383.67	895.00
383.93	901.00
384.20	891.00
384.46	909.00
384.72	923.00
384.98	877.00
385.25	901.00
385.51	932.00
385.77	921.00
386.04	881.00
386.30	853.00
386.56	913.00
386.82	983.00
387.09	896.00
387.35	929.00
387.61	987.00
387.88	940.00
388.14	904.00
388.40	892.00
388.67	905.00
388.93	905.00
389.19	879.00
389.45	892.00
389.72	906.00
389.98	926.00
390.24	891.00
390.51	895.00
390.77	919.00
391.03	928.00
391.29	883.00
391.56	913.00
391.82	941.00
392.08	954.00
392.35	897.00
392.61	889.00
392.87	893.00
393.13	914.00
393.40	877.00
393.66	896.00
393.92	924.00
394.18	922.00
394.45	852.00
394.71	892.00
394.97	899.00
395.24	898.00
395.50	878.00
395.76	907.00
396.02	922.00
396.29	924.00
396.55	867.00
396.81	833.00
397.07	900.00
397.34	892.00
397.60	867.00
397.86	872.00
398.12	886.00
398.39	916.00
398.65	885.00
398.91	897.00
399.17	901.00
399.44	868.00
399.70	842.00
399.96	867.00
400.22	893.00
400.49	938.00
400.75	889.00
401.01	874.00
401.27	885.00
401.54	904.00
401.80	886.00
402.06	885.00
402.32	929.00
402.59	918.00
402.85	876.00
403.11	873.00
403.37	873.00
403.64	923.00
403.90	873.00
404.16	897.00
404.42	900.00
404.69	886.00
404.95	883.00
405.21	850.00
405.47	885.00
405.74	931.00
406.00	906.00
406.26	883.00
406.52	908.00
406.79	930.00
407.05	881.00
407.31	885.00
407.57	888.00
407.83	906.00
408.10	853.00
408.36	867.00
408.62	902.00
408.88	888.00
409.15	876.00
409.41	857.00
409.67	881.00
409.93	926.00
410.20	919.00
410.46	897.00
410.72	887.00
410.98	901.00
411.24	881.00
411.51	883.00
411.77	868.00
412.03	903.00
412.29	900.00
412.55	916.00
412.82	900.00
413.08	934.00
413.34	908.00
413.60	895.00
413.87	903.00
414.13	920.00
414.39	861.00
414.65	889.00
414.91	909.00
415.18	892.00
415.44	856.00
415.70	871.00
415.96	903.00
416.22	907.00
416.49	885.00
416.75	892.00
417.01	897.00
417.27	898.00
417.53	886.00
417.80	905.00
418.06	931.00
418.32	934.00
418.58	886.00
418.84	869.00
419.11	882.00
419.37	913.00
419.63	876.00
419.89	868.00
420.15	893.00
420.42	901.00
420.68	867.00
420.94	886.00
421.20	891.00
421.46	905.00
421.72	891.00
421.99	892.00
422.25	909.00
422.51	905.00
422.77	882.00
423.03	901.00
423.30	900.00
423.56	934.00
423.82	926.00
424.08	927.00
424.34	934.00
424.60	906.00
424.87	888.00
425.13	883.00
425.39	892.00
425.65	894.00
425.91	881.00
426.18	895.00
426.44	913.00
426.70	883.00
426.96	835.00
427.22	847.00
427.48	869.00
427.75	883.00
428.01	857.00
428.27	904.00
428.53	921.00
428.79	883.00
429.05	875.00
429.32	897.00
429.58	935.00
429.84	881.00
430.10	890.00
430.36	901.00
430.62	934.00
430.88	920.00
431.15	907.00
431.41	900.00
431.67	916.00
431.93	894.00
432.19	863.00
432.45	886.00
432.72	893.00
432.98	913.00
433.24	926.00
433.50	984.00
433.76	901.00
434.02	888.00
434.28	864.00
434.55	883.00
434.81	910.00
435.07	918.00
435.33	852.00
435.59	870.00
435.85	889.00
436.11	902.00
436.38	852.00
436.64	857.00
436.90	888.00
437.16	896.00
437.42	874.00
437.68	880.00
437.94	916.00
438.21	913.00
438.47	903.00
438.73	905.00
438.99	892.00
439.25	905.00
439.51	874.00
439.77	886.00
440.03	888.00
440.30	920.00
440.56	908.00
440.82	921.00
441.08	920.00
441.34	904.00
441.60	883.00
441.86	907.00
442.12	920.00
442.39	900.00
442.65	866.00
442.91	886.00
443.17	881.00
443.43	918.00
443.69	897.00
443.95	858.00
444.21	883.00
444.47	923.00
444.74	862.00
445.00	888.00
445.26	889.00
445.52	896.00
445.78	870.00
446.04	872.00
446.30	920.00
446.56	913.00
446.82	864.00
447.09	888.00
447.35	908.00
447.61	900.00
447.87	886.00
448.13	887.00
448.39	950.00
448.65	912.00
448.91	875.00
449.17	871.00
449.43	871.00
449.70	905.00
449.96	874.00
450.22	877.00
450.48	904.00
450.74	940.00
451.00	889.00
451.26	888.00
451.52	897.00
451.78	897.00
452.04	879.00
452.31	903.00
452.57	914.00
452.83	887.00
453.09	872.00
453.35	873.00
453.61	914.00
453.87	909.00
454.13	910.00
454.39	905.00
454.65	970.00
454.91	939.00
455.17	878.00
455.44	876.00
455.70	905.00
455.96	899.00
456.22	856.00
456.48	881.00
456.74	904.00
457.00	882.00
457.26	845.00
457.52	884.00
457.78	902.00
458.04	909.00
458.30	862.00
458.56	875.00
458.82	896.00
459.09	892.00
459.35	827.00
459.61	846.00
459.87	890.00
460.13	925.00
460.39	882.00
460.65	857.00
460.91	915.00
461.17	893.00
461.43	855.00
461.69	872.00
461.95	900.00
462.21	880.00
462.47	879.00
462.73	904.00
462.99	939.00
463.26	934.00
463.52	868.00
463.78	855.00
464.04	878.00
464.30	890.00
464.56	862.00
464.82	887.00
465.08	928.00
465.34	954.00
465.60	889.00
465.86	884.00
466.12	884.00
466.38	869.00
466.64	871.00
466.90	894.00
467.16	893.00
467.42	913.00
467.68	865.00
467.94	892.00
468.20	923.00
468.46	908.00
468.72	875.00
468.98	881.00
469.25	920.00
469.51	897.00
469.77	905.00
470.03	901.00
470.29	906.00
470.55	913.00
470.81	884.00
471.07	873.00
471.33	912.00
471.59	926.00
471.85	872.00
472.11	899.00
472.37	928.00
472.63	890.00
472.89	886.00
473.15	880.00
473.41	891.00
473.67	881.00
473.93	843.00
474.19	862.00
474.45	882.00
474.71	909.00
474.97	872.00
475.23	880.00
475.49	871.00
475.75	865.00
476.01	880.00
476.27	906.00
476.53	933.00
476.79	918.00
477.05	894.00
477.31	886.00
477.57	910.00
477.83	895.00
478.09	850.00
478.35	884.00
478.61	929.00
478.87	901.00
479.13	870.00
479.39	912.00
479.65	927.00
479.91	925.00
480.17	888.00
480.43	899.00
480.69	887.00
480.95	915.00
481.21	870.00
481.47	883.00
481.73	898.00
481.99	896.00
482.25	850.00
482.51	860.00
482.77	919.00
483.03	897.00
483.29	884.00
483.55	879.00
483.81	912.00
484.07	929.00
484.33	881.00
484.59	890.00
484.85	914.00
485.11	908.00
485.37	880.00
485.63	871.00
485.89	890.00
486.15	885.00
486.41	874.00
486.67	891.00
486.93	918.00
487.19	887.00
487.45	860.00
487.71	866.00
487.97	922.00
488.23	916.00
488.49	867.00
488.75	858.00
489.01	920.00
489.27	939.00
489.53	878.00
489.79	884.00
490.05	900.00
490.31	917.00
490.57	922.00
490.83	951.00
491.08	891.00
491.34	884.00
491.60	882.00
491.86	899.00
492.12	943.00
492.38	936.00
492.64	874.00
492.90	870.00
493.16	907.00
493.42	883.00
493.68	843.00
493.94	892.00
494.20	865.00
494.46	909.00
494.72	880.00
494.98	883.00
495.24	902.00
495.50	898.00
495.76	900.00
496.02	896.00
496.28	908.00
496.54	910.00
496.80	873.00
497.05	861.00
497.31	897.00
497.57	909.00
497.83	882.00
498.09	899.00
498.35	928.00
498.61	914.00
498.87	879.00
499.13	869.00
499.39	903.00
499.65	899.00
499.91	878.00
500.17	872.00
500.43	952.00
500.69	969.00
500.95	872.00
501.20	908.00
501.46	928.00
501.72	920.00
501.98	905.00
502.24	893.00
502.50	927.00
502.76	904.00
503.02	888.00
503.28	898.00
503.54	934.00
503.80	934.00
504.06	913.00
504.32	912.00
504.58	919.00
504.83	898.00
505.09	843.00
505.35	879.00
505.61	879.00
505.87	891.00
506.13	890.00
506.39	870.00
506.65	920.00
506.91	939.00
507.17	881.00
507.43	876.00
507.68	900.00
507.94	925.00
508.20	877.00
508.46	869.00
508.72	921.00
508.98	932.00
509.24	872.00
509.50	914.00
509.76	900.00
510.02	902.00
510.28	862.00
510.53	878.00
510.79	919.00
511.05	907.00
511.31	878.00
511.57	897.00
511.83	913.00
512.09	918.00
512.35	863.00
512.61	878.00
512.87	894.00
513.12	903.00
513.38	847.00
513.64	884.00
513.90	914.00
514.16	939.00
514.42	893.00
514.68	889.00
514.94	928.00
515.20	914.00
515.45	877.00
515.71	878.00
515.97	904.00
516.23	902.00
516.49	875.00
516.75	874.00
517.01	894.00
517.27	885.00
517.53	856.00
517.78	875.00
518.04	888.00
518.30	874.00
518.56	865.00
518.82	904.00
519.08	928.00
519.34	869.00
519.60	865.00
519.85	884.00
520.11	891.00
520.37	892.00
520.63	876.00
520.89	908.00
521.15	903.00
521.41	882.00
521.66	871.00
521.92	875.00
522.18	915.00
522.44	910.00
522.70	884.00
522.96	864.00
523.22	893.00
523.48	886.00
523.73	889.00
523.99	871.00
524.25	915.00
524.51	926.00
524.77	861.00
525.03	862.00
525.29	901.00
525.54	897.00
525.80	884.00
526.06	882.00
526.32	891.00
526.58	908.00
526.84	870.00
527.09	871.00
527.35	874.00
527.61	890.00
527.87	876.00
528.13	906.00
528.39	885.00
528.65	899.00
528.90	842.00
529.16	855.00
529.42	876.00
529.68	882.00
529.94	857.00
530.20	875.00
530.45	870.00
530.71	908.00
530.97	863.00
531.23	894.00
531.49	913.00
531.75	894.00
532.00	884.00
532.26	870.00
532.52	891.00
532.78	890.00
533.04	855.00
533.30	879.00
533.55	890.00
533.81	885.00
534.07	846.00
534.33	859.00
534.59	894.00
534.85	908.00
535.10	870.00
535.36	862.00
535.62	890.00
535.88	888.00
536.14	861.00
536.39	874.00
536.65	926.00
536.91	919.00
537.17	866.00
537.43	880.00
537.69	922.00
537.94	905.00
538.20	850.00
538.46	886.00
538.72	892.00
538.98	910.00
539.23	871.00
539.49	847.00
539.75	916.00
540.01	900.00
540.27	873.00
540.52	899.00
540.78	918.00
541.04	922.00
541.30	877.00
541.56	853.00
541.81	914.00
542.07	981.00
542.33	896.00
542.59	871.00
542.85	892.00
543.10	902.00
543.36	850.00
543.62	896.00
543.88	891.00
544.14	892.00
544.39	871.00
544.65	882.00
544.91	931.00
545.17	891.00
545.43	872.00
545.68	881.00
545.94	886.00
546.20	911.00
546.46	873.00
546.71	878.00
546.97	904.00
547.23	923.00
547.49	884.00
547.75	873.00
548.00	905.00
548.26	914.00
548.52	862.00
548.78	866.00
549.03	890.00
549.29	888.00
549.55	859.00
549.81	882.00
550.07	914.00
550.32	902.00
550.58	858.00
550.84	890.00
551.10	899.00
551.35	909.00
551.61	871.00
551.87	901.00
552.13	909.00
552.39	886.00
552.64	855.00
552.90	877.00
553.16	904.00
553.42	884.00
553.67	844.00
553.93	880.00
554.19	923.00
554.45	915.00
554.70	881.00
554.96	864.00
555.22	892.00
555.48	931.00
555.73	871.00
555.99	868.00
556.25	901.00
556.51	898.00
556.76	883.00
557.02	885.00
557.28	928.00
557.54	902.00
557.79	871.00
558.05	894.00
558.31	880.00
558.57	900.00
558.82	853.00
559.08	848.00
559.34	859.00
559.60	892.00
559.85	863.00
560.11	880.00
560.37	904.00
560.63	872.00
560.88	862.00
561.14	866.00
561.40	907.00
561.66	879.00
561.91	867.00
562.17	878.00
562.43	900.00
562.68	909.00
562.94	899.00
563.20	905.00
563.46	915.00
563.71	931.00
563.97	861.00
564.23	885.00
564.49	924.00
564.74	902.00
565.00	849.00
565.26	872.00
565.51	903.00
565.77	879.00
566.03	865.00
566.29	885.00
566.54	869.00
566.80	893.00
567.06	888.00
567.31	899.00
567.57	897.00
567.83	894.00
568.09	891.00
568.34	862.00
568.60	879.00
568.86	908.00
569.11	899.00
569.37	874.00
569.63	908.00
569.89	907.00
570.14	841.00
570.40	862.00
570.66	888.00
570.91	888.00
571.17	872.00
571.43	892.00
571.69	902.00
571.94	909.00
572.20	866.00
572.46	886.00
572.71	902.00
572.97	901.00
573.23	873.00
573.48	884.00
573.74	904.00
574.00	913.00
574.26	858.00
574.51	881.00
574.77	933.00
575.03	915.00
575.28	876.00
575.54	856.00
575.80	872.00
576.05	893.00
576.31	875.00
576.57	857.00
576.82	883.00
577.08	901.00
577.34	868.00
577.59	869.00
577.85	903.00
578.11	875.00
578.37	863.00
578.62	869.00
578.88	909.00
579.14	914.00
579.39	858.00
579.65	885.00
579.91	911.00
580.16	896.00
580.42	873.00
580.68	886.00
580.93	895.00
581.19	888.00
581.45	847.00
581.70	882.00
581.96	907.00
582.22	911.00
582.47	882.00
582.73	894.00
582.99	933.00
583.24	918.00
583.50	868.00
583.76	883.00
584.01	893.00
584.27	913.00
584.53	881.00
584.78	891.00
585.04	880.00
585.30	912.00
585.55	885.00
585.81	877.00
586.07	922.00
586.32	916.00
586.58	873.00
586.83	869.00
587.09	900.00
587.35	910.00
587.60	888.00
587.86	885.00
588.12	890.00
588.37	910.00
588.63	873.00
588.89	892.00
589.14	923.00
589.40	915.00
589.66	865.00
589.91	882.00
590.17	907.00
590.43	864.00
590.68	857.00
590.94	889.00
591.19	910.00
591.45	880.00
591.71	859.00
591.96	882.00
592.22	901.00
592.48	913.00
592.73	853.00
592.99	853.00
593.25	896.00
593.50	897.00
593.76	855.00
594.01	884.00
594.27	921.00
594.53	914.00
594.78	864.00
595.04	870.00
595.30	902.00
595.55	901.00
595.81	868.00
596.06	905.00
596.32	947.00
596.58	924.00
596.83	889.00
597.09	905.00
597.35	905.00
597.60	897.00
597.86	864.00
598.11	876.00
598.37	918.00
598.63	907.00
598.88	859.00
599.14	878.00
599.39	923.00
599.65	885.00
599.91	844.00
600.16	879.00
600.42	905.00
600.67	930.00
600.93	868.00
601.19	893.00
601.44	950.00
601.70	917.00
601.95	877.00
602.21	895.00
602.47	882.00
602.72	903.00
602.98	885.00
603.23	894.00
603.49	895.00
603.75	922.00
604.00	873.00
604.26	876.00
604.51	907.00
604.77	918.00
605.03	849.00
605.28	876.00
605.54	926.00
605.79	937.00
606.05	869.00
606.31	872.00
606.56	881.00
606.82	923.00
607.07	900.00
607.33	900.00
607.59	930.00
607.84	901.00
608.10	852.00
608.35	873.00
608.61	920.00
608.86	921.00
609.12	899.00
609.38	917.00
609.63	945.00
609.89	901.00
610.14	854.00
610.40	882.00
610.65	911.00
610.91	910.00
611.17	873.00
611.42	907.00
611.68	936.00
611.93	922.00
612.19	904.00
612.44	919.00
612.70	921.00
612.96	886.00
613.21	865.00
613.47	891.00
613.72	903.00
613.98	925.00
614.23	902.00
614.49	911.00
614.75	939.00
615.00	924.00
615.26	910.00
615.51	890.00
615.77	915.00
616.02	957.00
616.28	915.00
616.53	942.00
616.79	934.00
617.05	923.00
617.30	894.00
617.56	925.00
617.81	974.00
618.07	954.00
618.32	941.00
618.58	954.00
618.83	967.00
619.09	996.00
619.34	921.00
619.60	918.00
619.86	962.00
620.11	999.00
620.37	944.00
620.62	930.00
620.88	973.00
621.13	973.00
621.39	961.00
621.64	948.00
621.90	981.00
622.15	973.00
622.41	954.00
622.66	962.00
622.92	990.00
623.18	1004.00
623.43	955.00
623.69	973.00
623.94	1025.00
624.20	1034.00
624.45	1012.00
624.71	1021.00
624.96	1021.00
625.22	1050.00
625.47	1017.00
625.73	1026.00
625.98	1021.00
626.24	993.00
626.49	965.00
626.75	996.00
627.00	1060.00
627.26	1084.00
627.51	1022.00
627.77	1052.00
628.02	1079.00
628.28	1076.00
628.53	1034.00
628.79	1104.00
629.05	1121.00
629.30	1092.00
629.56	1071.00
629.81	1101.00
630.07	1132.00
630.32	1116.00
630.58	1111.00
630.83	1082.00
631.09	1097.00
631.34	1115.00
631.60	1106.00
631.85	1118.00
632.11	1170.00
632.36	1190.00
632.62	1191.00
632.87	1174.00
633.13	1194.00
633.38	1203.00
633.64	1182.00
633.89	1205.00
634.15	1242.00
634.40	1279.00
634.66	1239.00
634.91	1247.00
635.17	1251.00
635.42	1298.00
635.68	1316.00
635.93	1291.00
636.18	1297.00
636.44	1333.00
636.69	1297.00
636.95	1291.00
637.20	1354.00
637.46	1346.00
637.71	1308.00
637.97	1332.00
638.22	1378.00
638.48	1419.00
638.73	1395.00
638.99	1410.00
639.24	1512.00
639.50	1496.00
639.75	1439.00
640.01	1425.00
640.26	1468.00
640.52	1492.00
640.77	1433.00
641.03	1380.00
641.28	1412.00
641.54	1417.00
641.79	1328.00
642.04	1342.00
642.30	1374.00
642.55	1329.00
642.81	1277.00
643.06	1254.00
643.32	1280.00
643.57	1274.00
643.83	1217.00
644.08	1168.00
644.34	1178.00
644.59	1224.00
644.85	1173.00
645.10	1177.00
645.35	1204.00
645.61	1187.00
645.86	1150.00
646.12	1120.00
646.37	1162.00
646.63	1124.00
646.88	1085.00
647.14	1109.00
647.39	1109.00
647.65	1119.00
647.90	1073.00
648.15	1087.00
648.41	1100.00
648.66	1093.00
648.92	1012.00
649.17	1030.00
649.43	1024.00
649.68	1008.00
649.94	988.00
650.19	970.00
650.44	1002.00
650.70	1008.00
650.95	932.00
651.21	954.00
651.46	999.00
651.72	1018.00
651.97	1008.00
652.23	979.00
652.48	979.00
652.73	974.00
652.99	952.00
653.24	955.00
653.50	949.00
653.75	952.00
654.01	925.00
654.26	940.00
654.51	952.00
654.77	966.00
655.02	943.00
655.28	909.00
655.53	918.00
655.79	930.00
656.04	914.00
656.29	919.00
656.55	923.00
656.80	933.00
657.06	895.00
657.31	894.00
657.56	901.00
657.82	911.00
658.07	900.00
658.33	908.00
658.58	912.00
658.84	932.00
659.09	893.00
659.34	913.00
659.60	917.00
659.85	907.00
660.11	865.00
660.36	869.00
660.61	889.00
660.87	877.00
661.12	854.00
661.38	885.00
661.63	918.00
661.88	914.00
662.14	907.00
662.39	902.00
662.65	914.00
662.90	942.00
663.15	882.00
663.41	908.00
663.66	936.00
663.92	932.00
664.17	869.00
664.42	891.00
664.68	915.00
664.93	908.00
665.19	863.00
665.44	878.00
665.69	863.00
665.95	894.00
666.20	857.00
666.45	898.00
666.71	911.00
666.96	928.00
667.22	859.00
667.47	874.00
667.72	894.00
667.98	895.00
668.23	869.00
668.49	901.00
668.74	925.00
668.99	910.00
669.25	867.00
669.50	870.00
669.75	902.00
670.01	897.00
670.26	851.00
670.52	861.00
670.77	911.00
671.02	893.00
671.28	859.00
671.53	888.00
671.78	905.00
672.04	896.00
672.29	864.00
672.54	872.00
672.80	903.00
673.05	900.00
673.31	861.00
673.56	905.00
673.81	940.00
674.07	908.00
674.32	873.00
674.57	882.00
674.83	902.00
675.08	910.00
675.33	877.00
675.59	880.00
675.84	916.00
676.09	883.00
676.35	872.00
676.60	890.00
676.86	911.00
677.11	929.00
677.36	881.00
677.62	900.00
677.87	955.00
678.12	958.00
678.38	869.00
678.63	867.00
678.88	920.00
679.14	919.00
679.39	846.00
679.64	873.00
679.90	888.00
680.15	913.00
680.40	897.00
680.66	866.00
680.91	884.00
681.16	892.00
681.42	861.00
681.67	867.00
681.92	896.00
682.18	932.00
682.43	858.00
682.68	861.00
682.94	887.00
683.19	886.00
683.44	865.00
683.70	898.00
683.95	894.00
684.20	892.00
684.46	892.00
684.71	894.00
684.96	875.00
685.22	898.00
685.47	871.00
685.72	890.00
685.98	902.00
686.23	855.00
686.48	854.00
686.74	892.00
686.99	925.00
687.24	907.00
687.50	850.00
687.75	863.00
688.00	891.00
688.25	899.00
688.51	878.00
688.76	907.00
689.01	875.00
689.27	885.00
689.52	837.00
689.77	886.00
690.03	870.00
690.28	871.00
690.53	862.00
690.79	872.00
691.04	908.00
691.29	918.00
691.54	851.00
691.80	885.00
692.05	892.00
692.30	903.00
692.56	874.00
692.81	890.00
693.06	871.00
693.32	881.00
693.57	873.00
693.82	904.00
694.07	912.00
694.33	915.00
694.58	872.00
694.83	892.00
695.09	885.00
695.34	909.00
695.59	880.00
695.84	882.00
696.10	905.00
696.35	912.00
696.60	846.00
696.86	854.00
697.11	908.00
697.36	906.00
697.61	848.00
697.87	884.00
698.12	888.00
698.37	878.00
698.63	873.00
698.88	857.00
699.13	888.00
699.38	884.00
699.64	861.00
699.89	873.00
700.14	885.00
700.39	898.00
700.65	871.00
700.90	911.00
701.15	889.00
701.40	905.00
701.66	870.00
701.91	885.00
702.16	875.00
702.42	883.00
702.67	850.00
702.92	857.00
703.17	874.00
703.43	880.00
703.68	873.00
703.93	908.00
704.18	913.00
704.44	874.00
704.69	853.00
704.94	875.00
705.19	882.00
705.45	887.00
705.70	890.00
705.95	874.00
706.20	869.00
706.46	904.00
706.71	864.00
706.96	859.00
707.21	878.00
707.47	885.00
707.72	872.00
707.97	877.00
708.22	897.00
708.48	926.00
708.73	873.00
708.98	851.00
709.23	890.00
709.49	894.00
709.74	861.00
709.99	870.00
710.24	875.00
710.50	885.00
710.75	878.00
711.00	911.00
711.25	918.00
711.50	901.00
711.76	855.00
712.01	868.00
712.26	869.00
712.51	898.00
712.77	868.00
713.02	869.00
713.27	868.00
713.52	882.00
713.78	882.00
714.03	882.00
714.28	866.00
714.53	901.00
714.78	868.00
715.04	894.00
715.29	908.00
715.54	911.00
715.79	853.00
716.05	902.00
716.30	922.00
716.55	904.00
716.80	875.00
717.05	914.00
717.31	901.00
717.56	899.00
717.81	869.00
718.06	881.00
718.31	886.00
718.57	897.00
718.82	866.00
719.07	903.00
719.32	897.00
719.57	912.00
719.83	871.00
720.08	900.00
720.33	882.00
720.58	859.00
720.83	836.00
721.09	903.00
721.34	897.00
721.59	897.00
721.84	859.00
722.09	868.00
722.35	879.00
722.60	887.00
722.85	866.00
723.10	888.00
723.35	868.00
723.61	893.00
723.86	873.00
724.11	870.00
724.36	879.00
724.61	868.00
724.87	865.00
725.12	877.00
725.37	875.00
725.62	873.00
725.87	872.00
726.12	866.00
726.38	863.00
726.63	883.00
726.88	872.00
727.13	897.00
727.38	874.00
727.64	892.00
727.89	858.00
728.14	868.00
728.39	837.00
728.64	876.00
728.89	868.00
729.15	898.00
729.40	916.00
729.65	914.00
729.90	843.00
730.15	869.00
730.40	895.00
730.66	889.00
730.91	855.00
731.16	857.00
731.41	879.00
731.66	901.00
731.91	871.00
732.17	897.00
732.42	894.00
732.67	891.00
732.92	870.00
733.17	886.00
733.42	884.00
733.68	888.00
733.93	864.00
734.18	866.00
734.43	866.00
734.68	869.00
734.93	858.00
735.18	882.00
735.44	904.00
735.69	898.00
735.94	852.00
736.19	881.00
736.44	875.00
736.69	932.00
736.95	869.00
737.20	872.00
737.45	907.00
737.70	897.00
737.95	894.00
738.20	893.00
738.45	900.00
738.70	901.00
738.96	860.00
739.21	899.00
739.46	915.00
739.71	905.00
739.96	863.00
740.21	898.00
740.46	958.00
740.72	928.00
740.97	874.00
741.22	902.00
741.47	877.00
741.72	894.00
741.97	853.00
742.22	888.00
742.47	912.00
742.73	876.00
742.98	856.00
743.23	861.00
743.48	864.00
743.73	893.00
743.98	877.00
744.23	873.00
744.48	895.00
744.74	898.00
744.99	872.00
745.24	903.00
745.49	875.00
745.74	888.00
745.99	851.00
746.24	886.00
746.49	874.00
746.74	884.00
747.00	878.00
747.25	881.00
747.50	854.00
747.75	867.00
748.00	832.00
748.25	857.00
748.50	874.00
748.75	905.00
749.00	905.00
749.26	914.00
749.51	907.00
749.76	922.00
750.01	866.00
750.26	899.00
750.51	919.00
750.76	911.00
751.01	850.00
751.26	875.00
751.51	895.00
751.77	904.00
752.02	870.00
752.27	869.00
752.52	879.00
752.77	909.00
753.02	884.00
753.27	917.00
753.52	903.00
753.77	880.00
754.02	864.00
754.27	872.00
754.52	860.00
754.78	878.00
755.03	860.00
755.28	880.00
755.53	897.00
755.78	892.00
756.03	844.00
756.28	883.00
756.53	896.00
756.78	898.00
757.03	869.00
757.28	881.00
757.53	881.00
757.79	853.00
758.04	850.00
758.29	910.00
758.54	898.00
758.79	902.00
759.04	866.00
759.29	862.00
759.54	871.00
759.79	874.00
760.04	863.00
760.29	855.00
760.54	860.00
760.79	880.00
761.04	861.00
761.29	873.00
761.55	863.00
761.80	883.00
762.05	846.00
762.30	870.00
762.55	869.00
762.80	900.00
763.05	888.00
763.30	904.00
763.55	917.00
763.80	895.00
764.05	836.00
764.30	887.00
764.55	917.00
764.80	890.00
765.05	845.00
765.30	879.00
765.55	900.00
765.80	873.00
766.05	845.00
766.30	877.00
766.56	881.00
766.81	887.00
767.06	874.00
767.31	900.00
767.56	875.00
767.81	882.00
768.06	861.00
768.31	883.00
768.56	889.00
768.81	922.00
769.06	872.00
769.31	884.00
769.56	863.00
769.81	893.00
770.06	849.00
770.31	865.00
770.56	877.00
770.81	860.00
771.06	846.00
771.31	880.00
771.56	882.00
771.81	883.00
772.06	844.00
772.31	894.00
772.56	896.00
772.81	906.00
773.06	858.00
773.31	870.00
773.56	872.00
773.81	856.00
774.06	853.00
774.31	880.00
774.56	884.00
774.81	913.00
775.06	877.00
775.31	892.00
775.56	891.00
775.81	887.00
776.06	830.00
776.31	872.00
776.56	890.00
776.82	874.00
777.07	840.00
777.32	873.00
777.57	889.00
777.82	921.00
778.07	866.00
778.32	853.00
778.57	876.00
778.82	918.00
779.07	871.00
779.32	869.00
779.57	868.00
779.82	890.00
780.07	841.00
780.32	873.00
780.56	890.00
780.81	921.00
781.06	845.00
781.31	858.00
781.56	899.00
781.81	898.00
782.06	866.00
782.31	896.00
782.56	882.00
782.81	916.00
783.06	876.00
783.31	877.00
783.56	886.00
783.81	912.00
784.06	876.00
784.31	866.00
784.56	869.00
784.81	918.00
785.06	877.00
785.31	888.00
785.56	863.00
785.81	852.00
786.06	851.00
786.31	876.00
786.56	862.00
786.81	890.00
787.06	884.00
787.31	888.00
787.56	878.00
787.81	867.00
788.06	857.00
788.31	882.00
788.56	873.00
788.81	898.00
789.06	878.00
789.31	890.00
789.56	896.00
789.81	877.00
790.06	848.00
790.31	891.00
790.56	873.00
790.80	873.00
791.05	852.00
791.30	858.00
791.55	872.00
791.80	890.00
792.05	864.00
792.30	870.00
792.55	856.00
792.80	882.00
793.05	860.00
793.30	872.00
793.55	893.00
793.80	908.00
794.05	869.00
794.30	884.00
794.55	886.00
794.80	911.00
795.05	872.00
795.30	846.00
795.54	859.00
795.79	889.00
796.04	849.00
796.29	874.00
796.54	876.00
796.79	901.00
797.04	877.00
797.29	898.00
797.54	903.00
797.79	881.00
798.04	856.00
798.29	847.00
798.54	870.00
798.79	869.00
799.04	849.00
799.29	887.00
799.53	891.00
799.78	880.00
800.03	867.00
800.28	846.00
800.53	859.00
800.78	922.00
801.03	881.00
801.28	873.00
801.53	872.00
801.78	908.00
802.03	866.00
802.28	884.00
802.52	911.00
802.77	936.00
803.02	890.00
803.27	889.00
803.52	867.00
803.77	898.00
804.02	885.00
804.27	903.00
804.52	903.00
804.77	897.00
805.02	878.00
805.27	896.00
805.51	885.00
805.76	900.00
806.01	850.00
806.26	876.00
806.51	877.00
806.76	929.00
807.01	888.00
807.26	864.00
807.51	888.00
807.76	853.00
808.00	852.00
808.25	888.00
808.50	907.00
808.75	896.00
809.00	861.00
809.25	868.00
809.50	884.00
809.75	917.00
810.00	893.00
810.24	861.00
810.49	834.00
810.74	860.00
810.99	864.00
811.24	874.00
811.49	868.00
811.74	896.00
811.99	835.00
812.24	885.00
812.48	854.00
812.73	835.00
812.98	830.00
813.23	851.00
813.48	876.00
813.73	885.00
813.98	849.00
814.23	864.00
814.47	849.00
814.72	851.00
814.97	853.00
815.22	885.00
815.47	882.00
815.72	882.00
815.97	838.00
816.22	852.00
816.46	863.00
816.71	903.00
816.96	869.00
817.21	901.00
817.46	869.00
817.71	900.00
817.96	862.00
818.20	867.00
818.45	849.00
818.70	881.00
818.95	846.00
819.20	853.00
819.45	876.00
819.70	889.00
819.94	862.00
820.19	881.00
820.44	876.00
820.69	903.00
820.94	862.00
821.19	876.00
821.44	923.00
821.68	940.00
821.93	870.00
822.18	898.00
822.43	915.00
822.68	908.00
822.93	857.00
823.17	883.00
823.42	890.00
823.67	877.00
823.92	857.00
824.17	874.00
824.42	877.00
824.67	900.00
824.91	882.00
825.16	893.00
825.41	876.00
825.66	880.00
825.91	837.00
826.16	851.00
826.40	885.00
826.65	882.00
826.90	847.00
827.15	878.00
827.40	893.00
827.65	906.00
827.89	830.00
828.14	872.00
828.39	883.00
828.64	894.00
828.89	855.00
829.13	868.00
829.38	868.00
829.63	881.00
829.88	851.00
830.13	857.00
830.38	849.00
830.62	895.00
830.87	858.00
831.12	882.00
831.37	909.00
831.62	926.00
831.86	865.00
832.11	868.00
832.36	858.00
832.61	910.00
832.86	873.00
833.10	880.00
833.35	871.00
833.60	900.00
833.85	864.00
834.10	893.00
834.35	908.00
834.59	905.00
834.84	859.00
835.09	889.00
835.34	869.00
835.59	896.00
835.83	889.00
836.08	885.00
836.33	889.00
836.58	896.00
836.83	862.00
837.07	874.00
837.32	889.00
837.57	884.00
837.82	866.00
838.06	874.00
838.31	897.00
838.56	907.00
838.81	832.00
839.06	875.00
839.30	878.00
839.55	907.00
839.80	851.00
840.05	891.00
840.30	889.00
840.54	898.00
840.79	862.00
841.04	870.00
841.29	884.00
841.53	892.00
841.78	851.00
842.03	854.00
842.28	856.00
842.53	870.00
842.77	870.00
843.02	894.00
843.27	889.00
843.52	900.00
843.76	883.00
844.01	892.00
844.26	879.00
844.51	887.00
844.75	856.00
845.00	868.00
845.25	867.00
845.50	899.00
845.75	868.00
845.99	890.00
846.24	908.00
846.49	891.00
846.74	849.00
846.98	851.00
847.23	877.00
847.48	886.00
847.73	857.00
847.97	873.00
848.22	908.00
848.47	904.00
848.72	853.00
848.96	861.00
849.21	898.00
849.46	880.00
849.71	853.00
849.95	869.00
850.20	870.00
850.45	909.00
850.70	843.00
850.94	881.00
851.19	860.00
851.44	864.00
851.69	841.00
851.93	880.00
852.18	893.00
852.43	894.00
852.68	871.00
852.92	914.00
853.17	925.00
853.42	919.00
853.66	869.00
853.91	880.00
854.16	876.00
854.41	924.00
854.65	882.00
854.90	880.00
855.15	882.00
855.40	902.00
855.64	882.00
855.89	866.00
856.14	859.00
856.39	873.00
856.63	864.00
856.88	874.00
857.13	871.00
857.37	870.00
857.62	853.00
857.87	857.00
858.12	878.00
858.36	902.00
858.61	834.00
858.86	866.00
859.10	885.00
859.35	892.00
859.60	846.00
859.85	838.00
860.09	850.00
860.34	894.00
860.59	874.00
860.83	871.00
861.08	861.00
861.33	904.00
861.58	862.00
861.82	875.00
862.07	891.00
862.32	890.00
862.56	860.00
862.81	862.00
863.06	869.00
863.30	867.00
863.55	863.00
863.80	877.00
864.05	874.00
864.29	876.00
864.54	871.00
864.79	887.00
865.03	883.00
865.28	899.00
865.53	855.00
865.77	835.00
866.02	873.00
866.27	906.00
866.51	859.00
866.76	848.00
867.01	850.00
867.26	902.00
867.50	870.00
867.75	857.00
868.00	904.00
868.24	902.00
868.49	866.00
868.74	875.00
868.98	846.00
869.23	893.00
869.48	868.00
869.72	864.00
869.97	865.00
870.22	900.00
870.46	867.00
870.71	898.00
870.96	878.00
871.20	891.00
871.45	843.00
871.70	867.00
871.94	914.00
872.19	907.00
872.44	872.00
872.68	871.00
872.93	880.00
873.18	860.00
873.42	834.00
873.67	875.00
873.92	914.00
874.16	896.00
874.41	874.00
874.66	892.00
874.90	891.00
875.15	912.00
875.40	897.00
875.64	891.00
875.89	873.00
876.14	886.00
876.38	867.00
876.63	886.00
876.88	894.00
877.12	906.00
877.37	857.00
877.62	874.00
877.86	888.00
878.11	891.00
878.36	845.00
878.60	861.00
878.85	877.00
879.09	885.00
879.34	864.00
879.59	883.00
879.83	904.00
880.08	917.00
880.33	884.00
880.57	896.00
880.82	893.00
881.07	893.00
881.31	878.00
881.56	863.00
881.80	853.00
882.05	876.00
882.30	827.00
882.54	847.00
882.79	908.00
883.04	934.00
883.28	888.00
883.53	876.00
883.77	886.00
884.02	900.00
884.27	851.00
884.51	851.00
884.76	849.00
885.01	888.00
885.25	836.00
885.50	870.00
885.74	875.00
885.99	902.00
886.24	878.00
886.48	878.00
886.73	887.00
886.98	907.00
887.22	881.00
887.47	899.00
887.71	883.00
887.96	880.00
888.21	870.00
888.45	878.00
888.70	897.00
888.94	925.00
889.19	841.00
889.44	868.00
889.68	906.00
889.93	925.00
890.17	868.00
890.42	866.00
890.67	901.00
890.91	966.00
891.16	865.00
891.40	865.00
891.65	874.00
891.90	906.00
892.14	834.00
892.39	880.00
892.63	878.00
892.88	913.00
893.13	874.00
893.37	852.00
893.62	875.00
893.86	896.00
894.11	865.00
894.36	862.00
894.60	854.00
894.85	864.00
895.09	855.00
895.34	892.00
895.59	884.00
895.83	875.00
896.08	855.00
896.32	862.00
896.57	866.00
896.81	873.00
897.06	849.00
897.31	858.00
897.55	886.00
897.80	883.00
898.04	845.00
898.29	858.00
898.53	883.00
898.78	891.00
899.03	850.00
899.27	862.00
899.52	881.00
899.76	904.00
900.01	864.00
900.25	886.00
900.50	888.00
900.75	896.00
900.99	860.00
901.24	946.00
901.48	901.00
901.73	883.00
901.97	856.00
902.22	881.00
902.47	884.00
902.71	888.00
902.96	854.00
903.20	886.00
903.45	892.00
903.69	898.00
903.94	874.00
904.18	858.00
904.43	869.00
904.68	880.00
904.92	825.00
905.17	863.00
905.41	896.00
905.66	906.00
905.90	881.00
906.15	869.00
906.39	880.00
906.64	882.00
906.88	837.00
907.13	869.00
907.38	904.00
907.62	905.00
907.87	857.00
908.11	896.00
908.36	875.00
908.60	877.00
908.85	817.00
909.09	863.00
909.34	881.00
909.58	887.00
909.83	844.00
910.07	849.00
910.32	916.00
910.56	925.00
910.81	867.00
911.06	903.00
911.30	899.00
911.55	883.00
911.79	846.00
912.04	870.00
912.28	857.00
912.53	900.00
912.77	885.00
913.02	875.00
913.26	874.00
913.51	870.00
913.75	861.00
914.00	871.00
914.24	894.00
914.49	887.00
914.73	859.00
914.98	901.00
915.22	910.00
915.47	877.00
915.71	854.00
915.96	872.00
916.20	884.00
916.45	854.00
916.69	847.00
916.94	880.00
917.18	879.00
917.43	882.00
917.67	846.00
917.92	838.00
918.16	893.00
918.41	900.00
918.65	865.00
918.90	850.00
919.14	846.00
919.39	872.00
919.63	856.00
919.88	861.00
920.12	890.00
920.37	886.00
920.61	842.00
920.86	885.00
921.10	900.00
921.35	882.00
921.59	863.00
921.84	886.00
922.08	890.00
922.33	913.00
922.57	845.00
922.82	855.00
923.06	873.00
923.31	893.00
923.55	840.00
923.80	872.00
924.04	874.00
924.29	896.00
924.53	857.00
924.78	863.00
925.02	862.00
925.27	885.00
925.51	879.00
925.76	904.00
926.00	884.00
926.25	882.00
926.49	855.00
926.73	889.00
926.98	899.00
927.22	898.00
927.47	862.00
927.71	865.00
927.96	884.00
928.20	886.00
928.45	869.00
928.69	910.00
928.94	898.00
929.18	875.00
929.43	893.00
929.67	881.00
929.91	886.00
930.16	896.00
930.40	853.00
930.65	850.00
930.89	877.00
931.14	921.00
931.38	874.00
931.63	877.00
931.87	885.00
932.12	909.00
932.36	853.00
932.60	862.00
932.85	886.00
933.09	884.00
933.34	862.00
933.58	889.00
933.83	865.00
934.07	910.00
934.32	867.00
934.56	893.00
934.80	910.00
935.05	924.00
935.29	883.00
935.54	888.00
935.78	866.00
936.03	888.00
936.27	836.00
936.52	862.00
936.76	885.00
937.00	891.00
937.25	861.00
937.49	891.00
937.74	925.00
937.98	910.00
938.23	860.00
938.47	860.00
938.71	876.00
938.96	869.00
939.20	866.00
939.45	878.00
939.69	866.00
939.94	905.00
940.18	846.00
940.42	862.00
940.67	908.00
940.91	881.00
941.16	856.00
941.40	853.00
941.64	875.00
941.89	890.00
942.13	861.00
942.38	875.00
942.62	962.00
942.87	916.00
943.11	872.00
943.35	862.00
943.60	887.00
943.84	922.00
944.09	875.00
944.33	892.00
944.57	904.00
944.82	890.00
945.06	879.00
945.31	867.00
945.55	858.00
945.79	896.00
946.04	859.00
946.28	858.00
946.53	867.00
946.77	901.00
947.01	852.00
947.26	892.00
947.50	872.00
947.75	882.00
947.99	866.00
948.23	883.00
948.48	877.00
948.72	889.00
948.97	858.00
949.21	861.00
949.45	888.00
949.70	920.00
949.94	882.00
950.18	882.00
950.43	897.00
950.67	883.00
950.92	867.00
951.16	867.00
951.40	877.00
951.65	897.00
951.89	862.00
952.13	878.00
952.38	892.00
952.62	898.00
952.87	856.00
953.11	887.00
953.35	896.00
953.60	881.00
953.84	832.00
954.08	858.00
954.33	876.00
954.57	883.00
954.82	884.00
955.06	874.00
955.30	858.00
955.55	874.00
955.79	857.00
956.03	884.00
956.28	888.00
956.52	884.00
956.76	883.00
957.01	899.00
957.25	887.00
957.50	890.00
957.74	862.00
957.98	850.00
958.23	894.00
958.47	887.00
958.71	858.00
958.96	896.00
959.20	902.00
959.44	896.00
959.69	857.00
959.93	890.00
960.17	906.00
960.42	901.00
960.66	887.00
960.90	884.00
961.15	887.00
961.39	892.00
961.64	865.00
961.88	873.00
962.12	895.00
962.37	903.00
962.61	870.00
962.85	865.00
963.10	893.00
963.34	889.00
963.58	850.00
963.83	877.00
964.07	897.00
964.31	907.00
964.56	878.00
964.80	860.00
965.04	871.00
965.29	887.00
965.53	852.00
965.77	861.00
966.02	832.00
966.26	854.00
966.50	840.00
966.74	886.00
966.99	909.00
967.23	894.00
967.47	876.00
967.72	886.00
967.96	879.00
968.20	885.00
968.45	855.00
968.69	862.00
968.93	867.00
969.18	890.00
969.42	884.00
969.66	882.00
969.91	869.00
970.15	901.00
970.39	858.00
970.64	892.00
970.88	898.00
971.12	893.00
971.36	867.00
971.61	868.00
971.85	889.00
972.09	896.00
972.34	858.00
972.58	884.00
972.82	883.00
973.07	915.00
973.31	856.00
973.55	880.00
973.79	903.00
974.04	931.00
974.28	892.00
974.52	878.00
974.77	866.00
975.01	914.00
975.25	875.00
975.50	876.00
975.74	905.00
975.98	906.00
976.22	869.00
976.47	868.00
976.71	870.00
976.95	888.00
977.20	884.00
977.44	870.00
977.68	878.00
977.92	908.00
978.17	864.00
978.41	866.00
978.65	893.00
978.90	880.00
979.14	878.00
979.38	888.00
979.62	879.00
979.87	880.00
980.11	841.00
980.35	890.00
980.59	893.00
980.84	908.00
981.08	870.00
981.32	851.00
981.57	878.00
981.81	893.00
982.05	863.00
982.29	836.00
982.54	871.00
982.78	892.00
983.02	860.00
983.26	874.00
983.51	903.00
983.75	900.00
983.99	835.00
984.23	873.00
984.48	876.00
984.72	905.00
984.96	858.00
985.20	872.00
985.45	932.00
985.69	908.00
985.93	873.00
986.17	897.00
986.42	898.00
986.66	881.00
986.90	828.00
987.14	848.00
987.39	871.00
987.63	867.00
987.87	851.00
988.11	868.00
988.36	893.00
988.60	905.00
988.84	884.00
989.08	858.00
989.33	891.00
989.57	902.00
989.81	848.00
990.05	855.00
990.30	870.00
990.54	871.00
990.78	857.00
991.02	870.00
991.27	885.00
991.51	885.00
991.75	859.00
991.99	896.00
992.23	872.00
992.48	853.00
992.72	826.00
992.96	862.00
993.20	857.00
993.45	887.00
993.69	890.00
993.93	866.00
994.17	887.00
994.41	884.00
994.66	853.00
994.90	862.00
995.14	893.00
995.38	891.00
995.63	880.00
995.87	873.00
996.11	923.00
996.35	896.00
996.59	845.00
996.84	845.00
997.08	882.00
997.32	876.00
997.56	867.00
997.80	860.00
998.05	866.00
998.29	870.00
998.53	849.00
998.77	888.00
999.01	908.00
999.26	906.00
999.50	861.00
999.74	856.00
999.98	889.00
1000.22	901.00
1000.47	840.00
1000.71	856.00
1000.95	898.00
1001.19	897.00
1001.43	869.00
1001.68	880.00
1001.92	889.00
1002.16	876.00
1002.40	857.00
1002.64	878.00
1002.89	886.00
1003.13	883.00
1003.37	869.00
1003.61	854.00
1003.85	885.00
1004.10	883.00
1004.34	857.00
1004.58	849.00
1004.82	879.00
1005.06	900.00
1005.30	865.00
1005.55	857.00
1005.79	894.00
1006.03	878.00
1006.27	864.00
1006.51	870.00
1006.76	868.00
1007.00	889.00
1007.24	858.00
1007.48	859.00
1007.72	902.00
1007.96	900.00
1008.21	868.00
1008.45	895.00
1008.69	899.00
1008.93	894.00
1009.17	870.00
1009.41	890.00
1009.66	909.00
1009.90	884.00
1010.14	859.00
1010.38	875.00
1010.62	885.00
1010.86	908.00
1011.10	865.00
1011.35	852.00
1011.59	879.00
1011.83	840.00
1012.07	846.00
1012.31	881.00
1012.55	893.00
1012.80	891.00
1013.04	876.00
1013.28	896.00
1013.52	897.00
1013.76	886.00
1014.00	848.00
1014.24	865.00
1014.49	907.00
1014.73	924.00
1014.97	879.00
1015.21	876.00
1015.45	921.00
1015.69	885.00
1015.93	861.00
1016.18	870.00
1016.42	904.00
1016.66	904.00
1016.90	854.00
1017.14	841.00
1017.38	844.00
1017.62	869.00
1017.87	860.00
1018.11	871.00
1018.35	885.00
1018.59	881.00
1018.83	855.00
1019.07	886.00
1019.31	898.00
1019.55	905.00
1019.80	874.00
1020.04	885.00
1020.28	877.00
1020.52	891.00
1020.76	865.00
1021.00	852.00
1021.24	876.00
1021.48	870.00
1021.73	858.00
1021.97	886.00
1022.21	888.00
1022.45	889.00
1022.69	864.00
1022.93	851.00
1023.17	891.00
1023.41	921.00
1023.65	874.00
1023.90	908.00
1024.14	913.00
1024.38	880.00
1024.62	829.00
1024.86	870.00
1025.10	896.00
1025.34	881.00
1025.58	831.00
1025.82	852.00
1026.07	888.00
1026.31	894.00
1026.55	840.00
1026.79	844.00
1027.03	884.00
1027.27	894.00
1027.51	837.00
1027.75	839.00
1027.99	869.00
1028.23	919.00
1028.47	882.00
1028.72	864.00
1028.96	897.00
1029.20	892.00
1029.44	865.00
1029.68	869.00
1029.92	882.00
1030.16	898.00
1030.40	833.00
1030.64	853.00
1030.88	875.00
1031.12	866.00
1031.37	826.00
1031.61	874.00
1031.85	912.00
1032.09	912.00
1032.33	874.00
1032.57	913.00
1032.81	894.00
1033.05	905.00
1033.29	888.00
1033.53	871.00
1033.77	920.00
1034.01	925.00
1034.25	880.00
1034.50	885.00
1034.74	880.00
1034.98	912.00
1035.22	879.00
1035.46	872.00
1035.70	910.00
1035.94	901.00
1036.18	868.00
1036.42	870.00
1036.66	858.00
1036.90	874.00
1037.14	844.00
1037.38	860.00
1037.62	885.00
1037.86	876.00
1038.10	866.00
1038.35	869.00
1038.59	895.00
1038.83	892.00
1039.07	871.00
1039.31	896.00
1039.55	870.00
1039.79	895.00
1040.03	856.00
1040.27	833.00
1040.51	883.00
1040.75	902.00
1040.99	880.00
1041.23	884.00
1041.47	888.00
1041.71	909.00
1041.95	867.00
1042.19	868.00
1042.43	922.00
1042.67	905.00
1042.91	864.00
1043.15	856.00
1043.39	889.00
1043.64	876.00
1043.88	870.00
1044.12	872.00
1044.36	926.00
1044.60	921.00
1044.84	877.00
1045.08	890.00
1045.32	897.00
1045.56	898.00
1045.80	875.00
1046.04	872.00
1046.28	931.00
1046.52	912.00
1046.76	846.00
1047.00	858.00
1047.24	902.00
1047.48	883.00
1047.72	869.00
1047.96	876.00
1048.20	886.00
1048.44	874.00
1048.68	838.00
1048.92	867.00
1049.16	878.00
1049.40	895.00
1049.64	861.00
1049.88	894.00
1050.12	909.00
1050.36	920.00
1050.60	874.00
1050.84	887.00
1051.08	883.00
1051.32	864.00
1051.56	868.00
1051.80	878.00
1052.04	882.00
1052.28	913.00
1052.52	845.00
1052.76	832.00
1053.00	868.00
1053.24	894.00
1053.48	845.00
1053.72	835.00
1053.96	883.00
1054.20	898.00
1054.44	878.00
1054.68	896.00
1054.92	904.00
1055.16	865.00
1055.40	871.00
1055.64	906.00
1055.88	903.00
1056.12	911.00
1056.36	841.00
1056.60	857.00
1056.84	908.00
1057.08	895.00
1057.32	865.00
1057.56	863.00
1057.80	880.00
1058.04	909.00
1058.28	860.00
1058.52	866.00
1058.76	914.00
1059.00	917.00
1059.24	851.00
1059.48	851.00
1059.72	893.00
1059.96	876.00
1060.20	883.00
1060.44	904.00
1060.68	921.00
1060.92	908.00
1061.16	855.00
1061.40	866.00
1061.64	891.00
1061.88	902.00
1062.11	865.00
1062.35	860.00
1062.59	876.00
1062.83	898.00
1063.07	876.00
1063.31	855.00
1063.55	864.00
1063.79	906.00
1064.03	872.00
1064.27	879.00
1064.51	899.00
1064.75	908.00
1064.99	879.00
1065.23	869.00
1065.47	864.00
1065.71	901.00
1065.95	866.00
1066.19	854.00
1066.43	905.00
1066.67	892.00
1066.91	868.00
1067.15	864.00
1067.38	875.00
1067.62	880.00
1067.86	844.00
1068.10	880.00
1068.34	900.00
1068.58	896.00
1068.82	862.00
1069.06	846.00
1069.30	896.00
1069.54	913.00
1069.78	895.00
1070.02	873.00
1070.26	884.00
1070.50	914.00
1070.74	860.00
1070.98	891.00
1071.21	886.00
1071.45	880.00
1071.69	846.00
1071.93	885.00
1072.17	889.00
1072.41	876.00
1072.65	889.00
1072.89	894.00
1073.13	888.00
1073.37	877.00
1073.61	843.00
1073.85	884.00
1074.09	859.00
1074.32	855.00
1074.56	862.00
1074.80	942.00
1075.04	1144.00
1075.28	986.00
1075.52	868.00
1075.76	889.00
1076.00	891.00
1076.24	892.00
1076.48	891.00
1076.72	889.00
1076.96	901.00
1077.19	894.00
1077.43	839.00
1077.67	894.00
1077.91	901.00
1078.15	886.00
1078.39	872.00
1078.63	873.00
1078.87	882.00
1079.11	872.00
1079.35	843.00
1079.58	861.00
1079.82	880.00
1080.06	879.00
1080.30	860.00
1080.54	892.00
1080.78	923.00
1081.02	876.00
1081.26	874.00
1081.50	886.00
1081.74	876.00
1081.97	887.00
1082.21	861.00
1082.45	875.00
1082.69	875.00
1082.93	866.00
1083.17	863.00
1083.41	850.00
1083.65	913.00
1083.88	924.00
1084.12	886.00
1084.36	881.00
1084.60	895.00
1084.84	896.00
1085.08	845.00
1085.32	860.00
1085.56	898.00
1085.80	907.00
1086.03	854.00
1086.27	852.00
1086.51	874.00
1086.75	909.00
1086.99	856.00
1087.23	842.00
1087.47	897.00
1087.70	888.00
1087.94	863.00
1088.18	893.00
1088.42	954.00
1088.66	893.00
1088.90	834.00
1089.14	866.00
1089.38	874.00
1089.61	903.00
1089.85	876.00
1090.09	856.00
1090.33	900.00
1090.57	908.00
1090.81	835.00
1091.05	862.00
1091.28	903.00
1091.52	885.00
1091.76	848.00
1092.00	875.00
1092.24	890.00
1092.48	911.00
1092.71	837.00
1092.95	873.00
1093.19	889.00
1093.43	892.00
1093.67	853.00
1093.91	868.00
1094.15	901.00
1094.38	905.00
1094.62	856.00
1094.86	858.00
1095.10	864.00
1095.34	871.00
1095.58	846.00
1095.81	872.00
1096.05	919.00
1096.29	921.00
1096.53	840.00
1096.77	873.00
1097.01	872.00
1097.24	918.00
1097.48	856.00
1097.72	880.00
1097.96	885.00
1098.20	892.00
1098.44	848.00
1098.67	851.00
1098.91	889.00
1099.15	890.00
1099.39	852.00
1099.63	867.00
1099.86	895.00
1100.10	873.00
1100.34	861.00
1100.58	862.00
1100.82	881.00
1101.06	883.00
1101.29	850.00
1101.53	871.00
1101.77	893.00
1102.01	873.00
1102.25	870.00
1102.48	877.00
1102.72	919.00
1102.96	912.00
1103.20	837.00
1103.44	876.00
1103.67	864.00
1103.91	877.00
1104.15	853.00
1104.39	866.00
1104.63	878.00
1104.86	861.00
1105.10	839.00
1105.34	874.00
1105.58	867.00
1105.82	866.00
1106.05	852.00
1106.29	877.00
1106.53	884.00
1106.77	913.00
1107.01	852.00
1107.24	896.00
1107.48	918.00
1107.72	899.00
1107.96	849.00
1108.20	863.00
1108.43	868.00
1108.67	884.00
1108.91	869.00
1109.15	854.00
1109.39	869.00
1109.62	891.00
1109.86	832.00
1110.10	854.00
1110.34	922.00
1110.57	937.00
1110.81	867.00
1111.05	876.00
1111.29	898.00
1111.53	918.00
1111.76	855.00
1112.00	897.00
1112.24	924.00
1112.48	906.00
1112.71	844.00
1112.95	854.00
1113.19	904.00
1113.43	904.00
1113.66	842.00
1113.90	874.00
1114.14	882.00
1114.38	894.00
1114.62	857.00
1114.85	887.00
1115.09	897.00
1115.33	937.00
1115.57	885.00
1115.80	856.00
1116.04	891.00
1116.28	884.00
1116.52	867.00
1116.75	882.00
1116.99	905.00
1117.23	905.00
1117.47	891.00
1117.70	901.00
1117.94	931.00
1118.18	866.00
1118.42	868.00
1118.65	894.00
1118.89	893.00
1119.13	904.00
1119.37	856.00
1119.60	890.00
1119.84	898.00
>>>>>End Processed Spectral Data<<<<<
