SpectraSuite Data File
++++++++++++++++++++++++++++++++++++
Date: Fri Dec 06 15:51:18 CET 2024
User: student
Dark Spectrum Present: No
Reference Spectrum Present: No
Number of Sampled Component Spectra: 1
Spectrometers: HR4C155
Integration Time (usec): 100000 (HR4C155)
Spectra Averaged: 1 (HR4C155)
Boxcar Smoothing: 0 (HR4C155)
Correct for Electrical Dark: No (HR4C155)
Strobe/Lamp Enabled: No (HR4C155)
Correct for Detector Non-linearity: No (HR4C155)
Correct for Stray Light: No (HR4C155)
Number of Pixels in Processed Spectrum: 3648
>>>>>Begin Processed Spectral Data<<<<<
195.39	710.00
195.66	710.00
195.93	710.00
196.20	660.00
196.46	694.00
196.73	839.00
197.00	850.00
197.27	838.00
197.54	853.00
197.81	859.00
198.08	850.00
198.35	885.00
198.61	885.00
198.88	852.00
199.15	871.00
199.42	887.00
199.69	900.00
199.96	873.00
200.23	891.00
200.49	875.00
200.76	908.00
201.03	874.00
201.30	882.00
201.57	931.00
201.84	943.00
202.11	887.00
202.38	899.00
202.64	927.00
202.91	922.00
203.18	879.00
203.45	949.00
203.72	1033.00
203.99	940.00
204.25	932.00
204.52	918.00
204.79	939.00
205.06	942.00
205.33	883.00
205.60	904.00
205.87	937.00
206.13	945.00
206.40	909.00
206.67	892.00
206.94	929.00
207.21	948.00
207.48	921.00
207.75	898.00
208.01	944.00
208.28	937.00
208.55	893.00
208.82	885.00
209.09	900.00
209.36	942.00
209.62	924.00
209.89	915.00
210.16	936.00
210.43	959.00
210.70	889.00
210.97	905.00
211.23	942.00
211.50	935.00
211.77	891.00
212.04	917.00
212.31	930.00
212.58	935.00
212.84	905.00
213.11	922.00
213.38	899.00
213.65	920.00
213.92	888.00
214.18	898.00
214.45	950.00
214.72	939.00
214.99	891.00
215.26	915.00
215.53	903.00
215.79	929.00
216.06	932.00
216.33	934.00
216.60	916.00
216.87	930.00
217.13	874.00
217.40	880.00
217.67	926.00
217.94	961.00
218.21	901.00
218.48	946.00
218.74	986.00
219.01	947.00
219.28	889.00
219.55	893.00
219.82	936.00
220.08	944.00
220.35	894.00
220.62	908.00
220.89	962.00
221.16	981.00
221.42	924.00
221.69	925.00
221.96	935.00
222.23	969.00
222.50	956.00
222.76	945.00
223.03	932.00
223.30	914.00
223.57	892.00
223.84	888.00
224.10	901.00
224.37	926.00
224.64	890.00
224.91	914.00
225.18	956.00
225.44	944.00
225.71	905.00
225.98	918.00
226.25	947.00
226.51	965.00
226.78	909.00
227.05	901.00
227.32	913.00
227.59	921.00
227.85	932.00
228.12	918.00
228.39	953.00
228.66	961.00
228.92	942.00
229.19	915.00
229.46	949.00
229.73	926.00
230.00	901.00
230.26	910.00
230.53	952.00
230.80	934.00
231.07	870.00
231.33	885.00
231.60	935.00
231.87	957.00
232.14	908.00
232.41	952.00
232.67	921.00
232.94	940.00
233.21	898.00
233.48	915.00
233.74	932.00
234.01	929.00
234.28	904.00
234.55	922.00
234.81	914.00
235.08	964.00
235.35	896.00
235.62	892.00
235.88	926.00
236.15	940.00
236.42	921.00
236.69	916.00
236.95	935.00
237.22	921.00
237.49	909.00
237.76	899.00
238.02	952.00
238.29	950.00
238.56	901.00
238.83	911.00
239.09	923.00
239.36	941.00
239.63	909.00
239.90	916.00
240.16	953.00
240.43	996.00
240.70	908.00
240.97	913.00
241.23	919.00
241.50	925.00
241.77	887.00
242.04	902.00
242.30	881.00
242.57	922.00
242.84	880.00
243.11	887.00
243.37	887.00
243.64	956.00
243.91	908.00
244.18	906.00
244.44	882.00
244.71	909.00
244.98	915.00
245.24	916.00
245.51	917.00
245.78	961.00
246.05	904.00
246.31	892.00
246.58	943.00
246.85	935.00
247.12	906.00
247.38	926.00
247.65	931.00
247.92	938.00
248.18	906.00
248.45	913.00
248.72	926.00
248.99	922.00
249.25	885.00
249.52	902.00
249.79	933.00
250.05	922.00
250.32	900.00
250.59	906.00
250.86	900.00
251.12	905.00
251.39	884.00
251.66	908.00
251.92	937.00
252.19	959.00
252.46	899.00
252.73	923.00
252.99	942.00
253.26	946.00
253.53	880.00
253.79	909.00
254.06	939.00
254.33	922.00
254.60	879.00
254.86	896.00
255.13	944.00
255.40	948.00
255.66	912.00
255.93	929.00
256.20	933.00
256.46	944.00
256.73	905.00
257.00	909.00
257.26	928.00
257.53	953.00
257.80	912.00
258.07	911.00
258.33	979.00
258.60	973.00
258.87	898.00
259.13	918.00
259.40	911.00
259.67	962.00
259.93	914.00
260.20	941.00
260.47	941.00
260.73	905.00
261.00	890.00
261.27	920.00
261.53	939.00
261.80	931.00
262.07	885.00
262.34	916.00
262.60	889.00
262.87	919.00
263.14	900.00
263.40	930.00
263.67	898.00
263.94	905.00
264.20	899.00
264.47	870.00
264.74	882.00
265.00	892.00
265.27	877.00
265.54	920.00
265.80	950.00
266.07	956.00
266.34	897.00
266.60	906.00
266.87	918.00
267.14	937.00
267.40	876.00
267.67	885.00
267.94	921.00
268.20	930.00
268.47	889.00
268.74	893.00
269.00	922.00
269.27	905.00
269.54	861.00
269.80	878.00
270.07	930.00
270.33	923.00
270.60	900.00
270.87	924.00
271.13	916.00
271.40	908.00
271.67	855.00
271.93	866.00
272.20	915.00
272.47	904.00
272.73	835.00
273.00	890.00
273.27	910.00
273.53	942.00
273.80	905.00
274.07	877.00
274.33	890.00
274.60	932.00
274.86	886.00
275.13	896.00
275.40	898.00
275.66	951.00
275.93	889.00
276.20	887.00
276.46	909.00
276.73	895.00
277.00	886.00
277.26	909.00
277.53	943.00
277.79	925.00
278.06	884.00
278.33	928.00
278.59	930.00
278.86	900.00
279.13	892.00
279.39	897.00
279.66	938.00
279.93	951.00
280.19	912.00
280.46	913.00
280.72	904.00
280.99	923.00
281.26	896.00
281.52	883.00
281.79	909.00
282.05	920.00
282.32	895.00
282.59	903.00
282.85	938.00
283.12	937.00
283.39	919.00
283.65	919.00
283.92	921.00
284.18	935.00
284.45	899.00
284.72	915.00
284.98	909.00
285.25	893.00
285.51	904.00
285.78	906.00
286.05	903.00
286.31	923.00
286.58	879.00
286.84	873.00
287.11	913.00
287.38	920.00
287.64	915.00
287.91	886.00
288.17	932.00
288.44	923.00
288.71	870.00
288.97	892.00
289.24	925.00
289.50	898.00
289.77	919.00
290.04	887.00
290.30	896.00
290.57	920.00
290.83	866.00
291.10	891.00
291.37	921.00
291.63	926.00
291.90	928.00
292.16	925.00
292.43	916.00
292.70	913.00
292.96	845.00
293.23	865.00
293.49	893.00
293.76	932.00
294.02	890.00
294.29	893.00
294.56	924.00
294.82	959.00
295.09	893.00
295.35	875.00
295.62	938.00
295.89	959.00
296.15	905.00
296.42	886.00
296.68	909.00
296.95	903.00
297.21	899.00
297.48	905.00
297.75	918.00
298.01	944.00
298.28	911.00
298.54	917.00
298.81	918.00
299.07	922.00
299.34	866.00
299.61	893.00
299.87	939.00
300.14	913.00
300.40	911.00
300.67	901.00
300.93	913.00
301.20	948.00
301.46	884.00
301.73	914.00
302.00	932.00
302.26	909.00
302.53	900.00
302.79	901.00
303.06	925.00
303.32	959.00
303.59	887.00
303.85	885.00
304.12	911.00
304.39	912.00
304.65	882.00
304.92	902.00
305.18	912.00
305.45	936.00
305.71	900.00
305.98	921.00
306.24	918.00
306.51	916.00
306.77	884.00
307.04	897.00
307.31	937.00
307.57	948.00
307.84	877.00
308.10	895.00
308.37	879.00
308.63	900.00
308.90	885.00
309.16	913.00
309.43	943.00
309.69	920.00
309.96	908.00
310.22	891.00
310.49	919.00
310.76	917.00
311.02	870.00
311.29	904.00
311.55	909.00
311.82	928.00
312.08	914.00
312.35	919.00
312.61	922.00
312.88	930.00
313.14	885.00
313.41	885.00
313.67	882.00
313.94	931.00
314.20	908.00
314.47	922.00
314.73	906.00
315.00	901.00
315.26	884.00
315.53	925.00
315.79	908.00
316.06	910.00
316.32	904.00
316.59	932.00
316.85	917.00
317.12	917.00
317.39	865.00
317.65	887.00
317.92	898.00
318.18	927.00
318.45	887.00
318.71	923.00
318.98	939.00
319.24	927.00
319.51	900.00
319.77	890.00
320.04	900.00
320.30	903.00
320.57	890.00
320.83	878.00
321.10	897.00
321.36	908.00
321.63	878.00
321.89	881.00
322.16	935.00
322.42	930.00
322.69	881.00
322.95	901.00
323.22	916.00
323.48	929.00
323.75	876.00
324.01	892.00
324.28	919.00
324.54	917.00
324.80	897.00
325.07	927.00
325.33	923.00
325.60	898.00
325.86	886.00
326.13	904.00
326.39	922.00
326.66	891.00
326.92	852.00
327.19	891.00
327.45	958.00
327.72	958.00
327.98	884.00
328.25	875.00
328.51	917.00
328.78	930.00
329.04	882.00
329.31	910.00
329.57	917.00
329.84	908.00
330.10	872.00
330.37	892.00
330.63	933.00
330.89	942.00
331.16	897.00
331.42	900.00
331.69	939.00
331.95	920.00
332.22	912.00
332.48	933.00
332.75	917.00
333.01	891.00
333.28	870.00
333.54	883.00
333.81	919.00
334.07	941.00
334.34	893.00
334.60	913.00
334.86	955.00
335.13	968.00
335.39	903.00
335.66	892.00
335.92	935.00
336.19	925.00
336.45	863.00
336.72	881.00
336.98	895.00
337.24	910.00
337.51	866.00
337.77	885.00
338.04	913.00
338.30	914.00
338.57	882.00
338.83	917.00
339.10	931.00
339.36	933.00
339.63	890.00
339.89	868.00
340.15	907.00
340.42	946.00
340.68	928.00
340.95	915.00
341.21	926.00
341.48	919.00
341.74	870.00
342.00	891.00
342.27	909.00
342.53	900.00
342.80	873.00
343.06	882.00
343.33	902.00
343.59	930.00
343.85	891.00
344.12	912.00
344.38	947.00
344.65	929.00
344.91	875.00
345.18	874.00
345.44	901.00
345.70	910.00
345.97	859.00
346.23	885.00
346.50	912.00
346.76	903.00
347.03	903.00
347.29	895.00
347.55	895.00
347.82	901.00
348.08	855.00
348.35	879.00
348.61	961.00
348.87	944.00
349.14	866.00
349.40	871.00
349.67	927.00
349.93	903.00
350.20	885.00
350.46	887.00
350.72	926.00
350.99	897.00
351.25	891.00
351.52	894.00
351.78	893.00
352.04	913.00
352.31	915.00
352.57	900.00
352.84	885.00
353.10	902.00
353.36	903.00
353.63	881.00
353.89	901.00
354.16	908.00
354.42	897.00
354.68	914.00
354.95	956.00
355.21	928.00
355.48	879.00
355.74	918.00
356.00	955.00
356.27	961.00
356.53	873.00
356.80	880.00
357.06	921.00
357.32	934.00
357.59	921.00
357.85	920.00
358.11	945.00
358.38	915.00
358.64	897.00
358.91	903.00
359.17	913.00
359.43	942.00
359.70	917.00
359.96	898.00
360.22	927.00
360.49	899.00
360.75	903.00
361.02	877.00
361.28	902.00
361.54	900.00
361.81	875.00
362.07	905.00
362.33	905.00
362.60	903.00
362.86	899.00
363.13	921.00
363.39	934.00
363.65	940.00
363.92	851.00
364.18	848.00
364.44	896.00
364.71	916.00
364.97	897.00
365.24	903.00
365.50	934.00
365.76	921.00
366.03	895.00
366.29	929.00
366.55	928.00
366.82	911.00
367.08	864.00
367.34	894.00
367.61	918.00
367.87	935.00
368.13	913.00
368.40	890.00
368.66	958.00
368.93	935.00
369.19	876.00
369.45	887.00
369.72	917.00
369.98	893.00
370.24	873.00
370.51	902.00
370.77	933.00
371.03	919.00
371.30	893.00
371.56	929.00
371.82	941.00
372.09	925.00
372.35	893.00
372.61	902.00
372.88	908.00
373.14	931.00
373.40	888.00
373.67	890.00
373.93	924.00
374.19	934.00
374.46	895.00
374.72	888.00
374.98	901.00
375.25	907.00
375.51	911.00
375.77	930.00
376.04	916.00
376.30	931.00
376.56	874.00
376.83	883.00
377.09	932.00
377.35	917.00
377.62	892.00
377.88	874.00
378.14	886.00
378.41	923.00
378.67	892.00
378.93	887.00
379.20	920.00
379.46	899.00
379.72	884.00
379.99	903.00
380.25	902.00
380.51	876.00
380.77	868.00
381.04	894.00
381.30	915.00
381.56	938.00
381.83	902.00
382.09	885.00
382.35	906.00
382.62	935.00
382.88	926.00
383.14	901.00
383.41	899.00
383.67	885.00
383.93	885.00
384.20	886.00
384.46	918.00
384.72	937.00
384.98	892.00
385.25	908.00
385.51	929.00
385.77	908.00
386.04	879.00
386.30	872.00
386.56	922.00
386.82	977.00
387.09	895.00
387.35	919.00
387.61	971.00
387.88	927.00
388.14	878.00
388.40	899.00
388.67	893.00
388.93	898.00
389.19	891.00
389.45	886.00
389.72	910.00
389.98	943.00
390.24	897.00
390.51	871.00
390.77	922.00
391.03	954.00
391.29	882.00
391.56	893.00
391.82	929.00
392.08	934.00
392.35	895.00
392.61	902.00
392.87	918.00
393.13	932.00
393.40	881.00
393.66	880.00
393.92	918.00
394.18	930.00
394.45	863.00
394.71	864.00
394.97	902.00
395.24	887.00
395.50	865.00
395.76	899.00
396.02	940.00
396.29	918.00
396.55	845.00
396.81	856.00
397.07	910.00
397.34	876.00
397.60	865.00
397.86	862.00
398.12	884.00
398.39	931.00
398.65	887.00
398.91	918.00
399.17	915.00
399.44	861.00
399.70	824.00
399.96	863.00
400.22	888.00
400.49	918.00
400.75	883.00
401.01	884.00
401.27	892.00
401.54	915.00
401.80	882.00
402.06	877.00
402.32	926.00
402.59	909.00
402.85	877.00
403.11	887.00
403.37	881.00
403.64	931.00
403.90	880.00
404.16	893.00
404.42	906.00
404.69	885.00
404.95	878.00
405.21	855.00
405.47	902.00
405.74	916.00
406.00	876.00
406.26	875.00
406.52	911.00
406.79	925.00
407.05	882.00
407.31	886.00
407.57	881.00
407.83	911.00
408.10	872.00
408.36	885.00
408.62	907.00
408.88	912.00
409.15	877.00
409.41	846.00
409.67	861.00
409.93	922.00
410.20	901.00
410.46	899.00
410.72	908.00
410.98	918.00
411.24	881.00
411.51	896.00
411.77	897.00
412.03	919.00
412.29	897.00
412.55	913.00
412.82	886.00
413.08	926.00
413.34	893.00
413.60	889.00
413.87	900.00
414.13	908.00
414.39	853.00
414.65	886.00
414.91	902.00
415.18	878.00
415.44	862.00
415.70	862.00
415.96	892.00
416.22	905.00
416.49	895.00
416.75	884.00
417.01	910.00
417.27	905.00
417.53	888.00
417.80	897.00
418.06	924.00
418.32	930.00
418.58	868.00
418.84	860.00
419.11	899.00
419.37	892.00
419.63	862.00
419.89	878.00
420.15	904.00
420.42	917.00
420.68	872.00
420.94	871.00
421.20	895.00
421.46	894.00
421.72	910.00
421.99	905.00
422.25	894.00
422.51	916.00
422.77	896.00
423.03	910.00
423.30	909.00
423.56	934.00
423.82	918.00
424.08	911.00
424.34	930.00
424.60	917.00
424.87	882.00
425.13	876.00
425.39	901.00
425.65	898.00
425.91	861.00
426.18	899.00
426.44	907.00
426.70	886.00
426.96	844.00
427.22	844.00
427.48	872.00
427.75	902.00
428.01	874.00
428.27	898.00
428.53	921.00
428.79	891.00
429.05	880.00
429.32	878.00
429.58	931.00
429.84	896.00
430.10	902.00
430.36	909.00
430.62	941.00
430.88	922.00
431.15	892.00
431.41	887.00
431.67	897.00
431.93	888.00
432.19	860.00
432.45	898.00
432.72	904.00
432.98	915.00
433.24	913.00
433.50	984.00
433.76	894.00
434.02	886.00
434.28	847.00
434.55	884.00
434.81	903.00
435.07	899.00
435.33	848.00
435.59	873.00
435.85	903.00
436.11	920.00
436.38	886.00
436.64	865.00
436.90	890.00
437.16	912.00
437.42	888.00
437.68	892.00
437.94	892.00
438.21	906.00
438.47	921.00
438.73	903.00
438.99	898.00
439.25	916.00
439.51	900.00
439.77	889.00
440.03	889.00
440.30	918.00
440.56	900.00
440.82	922.00
441.08	927.00
441.34	900.00
441.60	868.00
441.86	884.00
442.12	900.00
442.39	904.00
442.65	866.00
442.91	871.00
443.17	878.00
443.43	913.00
443.69	894.00
443.95	863.00
444.21	882.00
444.47	922.00
444.74	857.00
445.00	884.00
445.26	899.00
445.52	889.00
445.78	864.00
446.04	884.00
446.30	936.00
446.56	921.00
446.82	873.00
447.09	876.00
447.35	922.00
447.61	904.00
447.87	886.00
448.13	903.00
448.39	924.00
448.65	913.00
448.91	869.00
449.17	874.00
449.43	905.00
449.70	915.00
449.96	868.00
450.22	864.00
450.48	885.00
450.74	948.00
451.00	896.00
451.26	897.00
451.52	898.00
451.78	904.00
452.04	881.00
452.31	902.00
452.57	911.00
452.83	874.00
453.09	859.00
453.35	885.00
453.61	905.00
453.87	910.00
454.13	908.00
454.39	916.00
454.65	967.00
454.91	945.00
455.17	870.00
455.44	881.00
455.70	923.00
455.96	909.00
456.22	856.00
456.48	882.00
456.74	899.00
457.00	880.00
457.26	841.00
457.52	876.00
457.78	901.00
458.04	886.00
458.30	857.00
458.56	887.00
458.82	914.00
459.09	889.00
459.35	837.00
459.61	856.00
459.87	897.00
460.13	920.00
460.39	854.00
460.65	863.00
460.91	905.00
461.17	890.00
461.43	848.00
461.69	862.00
461.95	904.00
462.21	894.00
462.47	893.00
462.73	900.00
462.99	928.00
463.26	920.00
463.52	852.00
463.78	856.00
464.04	875.00
464.30	887.00
464.56	873.00
464.82	879.00
465.08	938.00
465.34	962.00
465.60	883.00
465.86	885.00
466.12	876.00
466.38	870.00
466.64	867.00
466.90	882.00
467.16	889.00
467.42	920.00
467.68	868.00
467.94	890.00
468.20	934.00
468.46	923.00
468.72	877.00
468.98	889.00
469.25	905.00
469.51	879.00
469.77	908.00
470.03	912.00
470.29	918.00
470.55	918.00
470.81	876.00
471.07	879.00
471.33	887.00
471.59	910.00
471.85	870.00
472.11	891.00
472.37	924.00
472.63	912.00
472.89	894.00
473.15	876.00
473.41	891.00
473.67	899.00
473.93	849.00
474.19	871.00
474.45	896.00
474.71	902.00
474.97	862.00
475.23	852.00
475.49	870.00
475.75	891.00
476.01	885.00
476.27	893.00
476.53	923.00
476.79	917.00
477.05	887.00
477.31	880.00
477.57	890.00
477.83	897.00
478.09	851.00
478.35	895.00
478.61	954.00
478.87	921.00
479.13	869.00
479.39	904.00
479.65	914.00
479.91	919.00
480.17	883.00
480.43	905.00
480.69	894.00
480.95	922.00
481.21	892.00
481.47	886.00
481.73	907.00
481.99	903.00
482.25	867.00
482.51	860.00
482.77	918.00
483.03	893.00
483.29	894.00
483.55	915.00
483.81	929.00
484.07	919.00
484.33	877.00
484.59	880.00
484.85	916.00
485.11	911.00
485.37	878.00
485.63	872.00
485.89	888.00
486.15	897.00
486.41	862.00
486.67	871.00
486.93	891.00
487.19	895.00
487.45	868.00
487.71	875.00
487.97	922.00
488.23	908.00
488.49	858.00
488.75	886.00
489.01	933.00
489.27	946.00
489.53	889.00
489.79	880.00
490.05	889.00
490.31	933.00
490.57	900.00
490.83	945.00
491.08	898.00
491.34	878.00
491.60	878.00
491.86	903.00
492.12	928.00
492.38	927.00
492.64	861.00
492.90	882.00
493.16	905.00
493.42	857.00
493.68	869.00
493.94	897.00
494.20	872.00
494.46	899.00
494.72	864.00
494.98	862.00
495.24	876.00
495.50	892.00
495.76	895.00
496.02	903.00
496.28	923.00
496.54	925.00
496.80	909.00
497.05	863.00
497.31	893.00
497.57	902.00
497.83	863.00
498.09	905.00
498.35	930.00
498.61	925.00
498.87	902.00
499.13	894.00
499.39	903.00
499.65	896.00
499.91	901.00
500.17	870.00
500.43	939.00
500.69	958.00
500.95	868.00
501.20	913.00
501.46	921.00
501.72	922.00
501.98	910.00
502.24	907.00
502.50	928.00
502.76	899.00
503.02	877.00
503.28	879.00
503.54	950.00
503.80	941.00
504.06	906.00
504.32	918.00
504.58	914.00
504.83	894.00
505.09	863.00
505.35	892.00
505.61	876.00
505.87	900.00
506.13	890.00
506.39	878.00
506.65	922.00
506.91	936.00
507.17	874.00
507.43	865.00
507.68	891.00
507.94	922.00
508.20	867.00
508.46	869.00
508.72	929.00
508.98	935.00
509.24	877.00
509.50	910.00
509.76	897.00
510.02	894.00
510.28	855.00
510.53	880.00
510.79	925.00
511.05	903.00
511.31	863.00
511.57	873.00
511.83	902.00
512.09	927.00
512.35	870.00
512.61	892.00
512.87	906.00
513.12	915.00
513.38	856.00
513.64	885.00
513.90	917.00
514.16	934.00
514.42	886.00
514.68	892.00
514.94	915.00
515.20	927.00
515.45	892.00
515.71	878.00
515.97	892.00
516.23	888.00
516.49	863.00
516.75	865.00
517.01	894.00
517.27	907.00
517.53	864.00
517.78	890.00
518.04	897.00
518.30	890.00
518.56	869.00
518.82	899.00
519.08	923.00
519.34	884.00
519.60	869.00
519.85	879.00
520.11	889.00
520.37	894.00
520.63	889.00
520.89	887.00
521.15	909.00
521.41	893.00
521.66	875.00
521.92	879.00
522.18	926.00
522.44	919.00
522.70	897.00
522.96	870.00
523.22	914.00
523.48	910.00
523.73	886.00
523.99	883.00
524.25	930.00
524.51	912.00
524.77	865.00
525.03	867.00
525.29	906.00
525.54	917.00
525.80	890.00
526.06	884.00
526.32	900.00
526.58	904.00
526.84	865.00
527.09	860.00
527.35	872.00
527.61	890.00
527.87	846.00
528.13	897.00
528.39	887.00
528.65	887.00
528.90	861.00
529.16	857.00
529.42	878.00
529.68	910.00
529.94	862.00
530.20	880.00
530.45	857.00
530.71	899.00
530.97	857.00
531.23	867.00
531.49	903.00
531.75	889.00
532.00	872.00
532.26	878.00
532.52	915.00
532.78	906.00
533.04	868.00
533.30	874.00
533.55	907.00
533.81	887.00
534.07	859.00
534.33	882.00
534.59	907.00
534.85	910.00
535.10	873.00
535.36	860.00
535.62	902.00
535.88	888.00
536.14	853.00
536.39	861.00
536.65	918.00
536.91	924.00
537.17	872.00
537.43	892.00
537.69	927.00
537.94	915.00
538.20	871.00
538.46	874.00
538.72	905.00
538.98	919.00
539.23	877.00
539.49	871.00
539.75	923.00
540.01	903.00
540.27	870.00
540.52	914.00
540.78	903.00
541.04	922.00
541.30	877.00
541.56	851.00
541.81	938.00
542.07	989.00
542.33	904.00
542.59	871.00
542.85	880.00
543.10	898.00
543.36	881.00
543.62	912.00
543.88	900.00
544.14	884.00
544.39	854.00
544.65	862.00
544.91	906.00
545.17	902.00
545.43	862.00
545.68	876.00
545.94	905.00
546.20	919.00
546.46	885.00
546.71	886.00
546.97	913.00
547.23	921.00
547.49	873.00
547.75	889.00
548.00	918.00
548.26	935.00
548.52	864.00
548.78	861.00
549.03	888.00
549.29	885.00
549.55	868.00
549.81	888.00
550.07	903.00
550.32	893.00
550.58	854.00
550.84	893.00
551.10	910.00
551.35	903.00
551.61	875.00
551.87	888.00
552.13	921.00
552.39	899.00
552.64	831.00
552.90	864.00
553.16	904.00
553.42	903.00
553.67	851.00
553.93	869.00
554.19	910.00
554.45	926.00
554.70	879.00
554.96	854.00
555.22	893.00
555.48	913.00
555.73	858.00
555.99	868.00
556.25	915.00
556.51	900.00
556.76	877.00
557.02	881.00
557.28	910.00
557.54	890.00
557.79	860.00
558.05	894.00
558.31	874.00
558.57	920.00
558.82	879.00
559.08	848.00
559.34	842.00
559.60	894.00
559.85	874.00
560.11	892.00
560.37	891.00
560.63	872.00
560.88	860.00
561.14	883.00
561.40	913.00
561.66	881.00
561.91	868.00
562.17	887.00
562.43	895.00
562.68	900.00
562.94	881.00
563.20	899.00
563.46	917.00
563.71	943.00
563.97	893.00
564.23	881.00
564.49	914.00
564.74	880.00
565.00	859.00
565.26	873.00
565.51	907.00
565.77	885.00
566.03	856.00
566.29	875.00
566.54	863.00
566.80	889.00
567.06	870.00
567.31	899.00
567.57	920.00
567.83	888.00
568.09	873.00
568.34	866.00
568.60	881.00
568.86	912.00
569.11	892.00
569.37	876.00
569.63	907.00
569.89	917.00
570.14	833.00
570.40	870.00
570.66	898.00
570.91	882.00
571.17	858.00
571.43	892.00
571.69	924.00
571.94	914.00
572.20	881.00
572.46	886.00
572.71	921.00
572.97	909.00
573.23	865.00
573.48	868.00
573.74	900.00
574.00	913.00
574.26	871.00
574.51	891.00
574.77	924.00
575.03	900.00
575.28	855.00
575.54	864.00
575.80	897.00
576.05	909.00
576.31	863.00
576.57	853.00
576.82	892.00
577.08	896.00
577.34	858.00
577.59	870.00
577.85	911.00
578.11	902.00
578.37	869.00
578.62	875.00
578.88	917.00
579.14	913.00
579.39	881.00
579.65	905.00
579.91	898.00
580.16	912.00
580.42	871.00
580.68	871.00
580.93	909.00
581.19	885.00
581.45	858.00
581.70	889.00
581.96	904.00
582.22	916.00
582.47	884.00
582.73	894.00
582.99	919.00
583.24	904.00
583.50	856.00
583.76	875.00
584.01	891.00
584.27	901.00
584.53	870.00
584.78	895.00
585.04	880.00
585.30	904.00
585.55	893.00
585.81	870.00
586.07	898.00
586.32	906.00
586.58	877.00
586.83	868.00
587.09	893.00
587.35	895.00
587.60	868.00
587.86	866.00
588.12	881.00
588.37	907.00
588.63	874.00
588.89	899.00
589.14	905.00
589.40	926.00
589.66	870.00
589.91	880.00
590.17	910.00
590.43	855.00
590.68	849.00
590.94	877.00
591.19	903.00
591.45	894.00
591.71	879.00
591.96	865.00
592.22	910.00
592.48	915.00
592.73	864.00
592.99	876.00
593.25	908.00
593.50	906.00
593.76	870.00
594.01	884.00
594.27	905.00
594.53	882.00
594.78	868.00
595.04	884.00
595.30	906.00
595.55	904.00
595.81	852.00
596.06	905.00
596.32	945.00
596.58	926.00
596.83	866.00
597.09	902.00
597.35	901.00
597.60	888.00
597.86	865.00
598.11	881.00
598.37	915.00
598.63	899.00
598.88	869.00
599.14	877.00
599.39	929.00
599.65	903.00
599.91	846.00
600.16	885.00
600.42	889.00
600.67	923.00
600.93	856.00
601.19	898.00
601.44	954.00
601.70	940.00
601.95	878.00
602.21	883.00
602.47	898.00
602.72	898.00
602.98	863.00
603.23	903.00
603.49	916.00
603.75	911.00
604.00	874.00
604.26	880.00
604.51	886.00
604.77	915.00
605.03	873.00
605.28	857.00
605.54	934.00
605.79	957.00
606.05	861.00
606.31	878.00
606.56	918.00
606.82	935.00
607.07	894.00
607.33	914.00
607.59	925.00
607.84	909.00
608.10	859.00
608.35	876.00
608.61	913.00
608.86	926.00
609.12	902.00
609.38	928.00
609.63	939.00
609.89	924.00
610.14	874.00
610.40	898.00
610.65	921.00
610.91	909.00
611.17	877.00
611.42	902.00
611.68	945.00
611.93	941.00
612.19	914.00
612.44	921.00
612.70	934.00
612.96	900.00
613.21	897.00
613.47	906.00
613.72	926.00
613.98	931.00
614.23	893.00
614.49	920.00
614.75	937.00
615.00	921.00
615.26	916.00
615.51	901.00
615.77	919.00
616.02	962.00
616.28	916.00
616.53	917.00
616.79	933.00
617.05	929.00
617.30	905.00
617.56	925.00
617.81	969.00
618.07	956.00
618.32	924.00
618.58	963.00
618.83	985.00
619.09	985.00
619.34	932.00
619.60	931.00
619.86	969.00
620.11	992.00
620.37	955.00
620.62	966.00
620.88	981.00
621.13	987.00
621.39	948.00
621.64	967.00
621.90	1006.00
622.15	972.00
622.41	949.00
622.66	989.00
622.92	1013.00
623.18	1015.00
623.43	973.00
623.69	978.00
623.94	1020.00
624.20	1022.00
624.45	1040.00
624.71	1026.00
624.96	1013.00
625.22	1044.00
625.47	1018.00
625.73	1044.00
625.98	1062.00
626.24	1053.00
626.49	1024.00
626.75	1068.00
627.00	1113.00
627.26	1106.00
627.51	1097.00
627.77	1097.00
628.02	1092.00
628.28	1121.00
628.53	1089.00
628.79	1121.00
629.05	1133.00
629.30	1124.00
629.56	1110.00
629.81	1152.00
630.07	1189.00
630.32	1191.00
630.58	1166.00
630.83	1166.00
631.09	1194.00
631.34	1186.00
631.60	1155.00
631.85	1170.00
632.11	1210.00
632.36	1226.00
632.62	1236.00
632.87	1273.00
633.13	1246.00
633.38	1244.00
633.64	1194.00
633.89	1177.00
634.15	1238.00
634.40	1319.00
634.66	1301.00
634.91	1285.00
635.17	1314.00
635.42	1378.00
635.68	1358.00
635.93	1304.00
636.18	1323.00
636.44	1391.00
636.69	1374.00
636.95	1370.00
637.20	1370.00
637.46	1399.00
637.71	1419.00
637.97	1410.00
638.22	1396.00
638.48	1375.00
638.73	1355.00
638.99	1347.00
639.24	1355.00
639.50	1332.00
639.75	1279.00
640.01	1333.00
640.26	1398.00
640.52	1413.00
640.77	1364.00
641.03	1413.00
641.28	1401.00
641.54	1343.00
641.79	1291.00
642.04	1325.00
642.30	1339.00
642.55	1297.00
642.81	1268.00
643.06	1259.00
643.32	1285.00
643.57	1296.00
643.83	1258.00
644.08	1239.00
644.34	1249.00
644.59	1211.00
644.85	1155.00
645.10	1175.00
645.35	1163.00
645.61	1153.00
645.86	1125.00
646.12	1122.00
646.37	1169.00
646.63	1171.00
646.88	1097.00
647.14	1055.00
647.39	1057.00
647.65	1117.00
647.90	1072.00
648.15	1074.00
648.41	1075.00
648.66	1069.00
648.92	1004.00
649.17	1019.00
649.43	1030.00
649.68	1018.00
649.94	1018.00
650.19	995.00
650.44	1018.00
650.70	1003.00
650.95	946.00
651.21	981.00
651.46	1019.00
651.72	1021.00
651.97	956.00
652.23	942.00
652.48	964.00
652.73	974.00
652.99	935.00
653.24	952.00
653.50	938.00
653.75	941.00
654.01	924.00
654.26	927.00
654.51	940.00
654.77	958.00
655.02	925.00
655.28	919.00
655.53	921.00
655.79	918.00
656.04	907.00
656.29	928.00
656.55	930.00
656.80	925.00
657.06	879.00
657.31	887.00
657.56	905.00
657.82	907.00
658.07	887.00
658.33	904.00
658.58	913.00
658.84	935.00
659.09	896.00
659.34	898.00
659.60	901.00
659.85	917.00
660.11	884.00
660.36	900.00
660.61	918.00
660.87	890.00
661.12	865.00
661.38	892.00
661.63	912.00
661.88	926.00
662.14	916.00
662.39	893.00
662.65	939.00
662.90	946.00
663.15	880.00
663.41	888.00
663.66	927.00
663.92	945.00
664.17	876.00
664.42	897.00
664.68	923.00
664.93	897.00
665.19	878.00
665.44	874.00
665.69	865.00
665.95	897.00
666.20	876.00
666.45	899.00
666.71	922.00
666.96	892.00
667.22	837.00
667.47	891.00
667.72	900.00
667.98	910.00
668.23	857.00
668.49	898.00
668.74	906.00
668.99	891.00
669.25	861.00
669.50	876.00
669.75	902.00
670.01	917.00
670.26	849.00
670.52	864.00
670.77	917.00
671.02	893.00
671.28	861.00
671.53	884.00
671.78	915.00
672.04	905.00
672.29	890.00
672.54	864.00
672.80	889.00
673.05	878.00
673.31	854.00
673.56	913.00
673.81	932.00
674.07	908.00
674.32	876.00
674.57	884.00
674.83	890.00
675.08	913.00
675.33	893.00
675.59	879.00
675.84	907.00
676.09	891.00
676.35	872.00
676.60	891.00
676.86	906.00
677.11	930.00
677.36	873.00
677.62	890.00
677.87	934.00
678.12	948.00
678.38	877.00
678.63	897.00
678.88	922.00
679.14	937.00
679.39	861.00
679.64	876.00
679.90	886.00
680.15	897.00
680.40	904.00
680.66	876.00
680.91	902.00
681.16	887.00
681.42	848.00
681.67	858.00
681.92	886.00
682.18	921.00
682.43	857.00
682.68	856.00
682.94	885.00
683.19	850.00
683.44	848.00
683.70	902.00
683.95	900.00
684.20	894.00
684.46	888.00
684.71	901.00
684.96	897.00
685.22	909.00
685.47	876.00
685.72	904.00
685.98	920.00
686.23	859.00
686.48	869.00
686.74	910.00
686.99	926.00
687.24	897.00
687.50	861.00
687.75	863.00
688.00	879.00
688.25	884.00
688.51	883.00
688.76	899.00
689.01	878.00
689.27	891.00
689.52	866.00
689.77	876.00
690.03	870.00
690.28	874.00
690.53	854.00
690.79	882.00
691.04	897.00
691.29	913.00
691.54	859.00
691.80	872.00
692.05	891.00
692.30	886.00
692.56	876.00
692.81	892.00
693.06	879.00
693.32	882.00
693.57	865.00
693.82	887.00
694.07	901.00
694.33	903.00
694.58	858.00
694.83	884.00
695.09	890.00
695.34	913.00
695.59	886.00
695.84	883.00
696.10	916.00
696.35	915.00
696.60	856.00
696.86	866.00
697.11	906.00
697.36	901.00
697.61	862.00
697.87	892.00
698.12	885.00
698.37	892.00
698.63	876.00
698.88	855.00
699.13	888.00
699.38	892.00
699.64	847.00
699.89	868.00
700.14	870.00
700.39	890.00
700.65	868.00
700.90	905.00
701.15	891.00
701.40	906.00
701.66	869.00
701.91	890.00
702.16	874.00
702.42	880.00
702.67	841.00
702.92	853.00
703.17	877.00
703.43	889.00
703.68	879.00
703.93	910.00
704.18	932.00
704.44	896.00
704.69	872.00
704.94	886.00
705.19	877.00
705.45	922.00
705.70	875.00
705.95	869.00
706.20	884.00
706.46	908.00
706.71	882.00
706.96	881.00
707.21	898.00
707.47	889.00
707.72	881.00
707.97	900.00
708.22	904.00
708.48	907.00
708.73	849.00
708.98	844.00
709.23	888.00
709.49	887.00
709.74	870.00
709.99	869.00
710.24	890.00
710.50	883.00
710.75	879.00
711.00	897.00
711.25	899.00
711.50	884.00
711.76	861.00
712.01	874.00
712.26	869.00
712.51	905.00
712.77	860.00
713.02	880.00
713.27	872.00
713.52	876.00
713.78	867.00
714.03	885.00
714.28	876.00
714.53	901.00
714.78	866.00
715.04	895.00
715.29	892.00
715.54	892.00
715.79	854.00
716.05	897.00
716.30	904.00
716.55	895.00
716.80	858.00
717.05	884.00
717.31	892.00
717.56	885.00
717.81	870.00
718.06	871.00
718.31	860.00
718.57	893.00
718.82	869.00
719.07	907.00
719.32	884.00
719.57	898.00
719.83	871.00
720.08	887.00
720.33	881.00
720.58	861.00
720.83	846.00
721.09	916.00
721.34	900.00
721.59	906.00
721.84	856.00
722.09	881.00
722.35	898.00
722.60	878.00
722.85	845.00
723.10	874.00
723.35	869.00
723.61	895.00
723.86	890.00
724.11	886.00
724.36	874.00
724.61	876.00
724.87	860.00
725.12	865.00
725.37	878.00
725.62	856.00
725.87	855.00
726.12	866.00
726.38	861.00
726.63	886.00
726.88	861.00
727.13	882.00
727.38	887.00
727.64	890.00
727.89	859.00
728.14	868.00
728.39	844.00
728.64	876.00
728.89	862.00
729.15	884.00
729.40	917.00
729.65	914.00
729.90	862.00
730.15	883.00
730.40	897.00
730.66	886.00
730.91	871.00
731.16	886.00
731.41	886.00
731.66	901.00
731.91	873.00
732.17	900.00
732.42	913.00
732.67	883.00
732.92	850.00
733.17	907.00
733.42	900.00
733.68	898.00
733.93	865.00
734.18	864.00
734.43	857.00
734.68	886.00
734.93	862.00
735.18	883.00
735.44	902.00
735.69	911.00
735.94	838.00
736.19	873.00
736.44	883.00
736.69	949.00
736.95	883.00
737.20	885.00
737.45	896.00
737.70	893.00
737.95	874.00
738.20	900.00
738.45	901.00
738.70	894.00
738.96	890.00
739.21	902.00
739.46	923.00
739.71	918.00
739.96	883.00
740.21	913.00
740.46	950.00
740.72	925.00
740.97	873.00
741.22	899.00
741.47	864.00
741.72	897.00
741.97	864.00
742.22	882.00
742.47	902.00
742.73	886.00
742.98	850.00
743.23	851.00
743.48	862.00
743.73	891.00
743.98	861.00
744.23	865.00
744.48	891.00
744.74	858.00
744.99	851.00
745.24	907.00
745.49	887.00
745.74	899.00
745.99	853.00
746.24	872.00
746.49	863.00
746.74	872.00
747.00	875.00
747.25	883.00
747.50	849.00
747.75	856.00
748.00	826.00
748.25	872.00
748.50	886.00
748.75	891.00
749.00	916.00
749.26	931.00
749.51	897.00
749.76	921.00
750.01	852.00
750.26	869.00
750.51	919.00
750.76	893.00
751.01	849.00
751.26	866.00
751.51	883.00
751.77	905.00
752.02	871.00
752.27	883.00
752.52	881.00
752.77	905.00
753.02	882.00
753.27	903.00
753.52	898.00
753.77	886.00
754.02	853.00
754.27	881.00
754.52	848.00
754.78	893.00
755.03	862.00
755.28	882.00
755.53	883.00
755.78	887.00
756.03	850.00
756.28	878.00
756.53	888.00
756.78	890.00
757.03	872.00
757.28	883.00
757.53	907.00
757.79	870.00
758.04	850.00
758.29	898.00
758.54	907.00
758.79	916.00
759.04	852.00
759.29	857.00
759.54	887.00
759.79	876.00
760.04	875.00
760.29	876.00
760.54	889.00
760.79	886.00
761.04	866.00
761.29	882.00
761.55	877.00
761.80	889.00
762.05	862.00
762.30	892.00
762.55	901.00
762.80	908.00
763.05	883.00
763.30	902.00
763.55	914.00
763.80	900.00
764.05	868.00
764.30	885.00
764.55	905.00
764.80	902.00
765.05	858.00
765.30	892.00
765.55	891.00
765.80	890.00
766.05	849.00
766.30	888.00
766.56	879.00
766.81	885.00
767.06	880.00
767.31	895.00
767.56	884.00
767.81	880.00
768.06	856.00
768.31	877.00
768.56	896.00
768.81	936.00
769.06	867.00
769.31	890.00
769.56	880.00
769.81	908.00
770.06	856.00
770.31	870.00
770.56	884.00
770.81	874.00
771.06	851.00
771.31	871.00
771.56	873.00
771.81	896.00
772.06	866.00
772.31	906.00
772.56	897.00
772.81	901.00
773.06	868.00
773.31	899.00
773.56	885.00
773.81	864.00
774.06	865.00
774.31	893.00
774.56	890.00
774.81	903.00
775.06	880.00
775.31	915.00
775.56	893.00
775.81	890.00
776.06	846.00
776.31	877.00
776.56	896.00
776.82	903.00
777.07	861.00
777.32	881.00
777.57	894.00
777.82	904.00
778.07	870.00
778.32	876.00
778.57	891.00
778.82	918.00
779.07	872.00
779.32	884.00
779.57	864.00
779.82	891.00
780.07	869.00
780.32	891.00
780.56	899.00
780.81	919.00
781.06	852.00
781.31	861.00
781.56	925.00
781.81	923.00
782.06	885.00
782.31	904.00
782.56	900.00
782.81	916.00
783.06	863.00
783.31	883.00
783.56	883.00
783.81	902.00
784.06	862.00
784.31	884.00
784.56	865.00
784.81	936.00
785.06	899.00
785.31	903.00
785.56	870.00
785.81	870.00
786.06	853.00
786.31	888.00
786.56	878.00
786.81	887.00
787.06	886.00
787.31	884.00
787.56	869.00
787.81	853.00
788.06	854.00
788.31	883.00
788.56	865.00
788.81	901.00
789.06	895.00
789.31	890.00
789.56	887.00
789.81	890.00
790.06	839.00
790.31	903.00
790.56	885.00
790.80	876.00
791.05	868.00
791.30	856.00
791.55	872.00
791.80	887.00
792.05	858.00
792.30	866.00
792.55	870.00
792.80	874.00
793.05	860.00
793.30	858.00
793.55	884.00
793.80	910.00
794.05	856.00
794.30	873.00
794.55	882.00
794.80	912.00
795.05	852.00
795.30	857.00
795.54	875.00
795.79	898.00
796.04	847.00
796.29	886.00
796.54	876.00
796.79	901.00
797.04	869.00
797.29	893.00
797.54	902.00
797.79	905.00
798.04	871.00
798.29	858.00
798.54	838.00
798.79	873.00
799.04	860.00
799.29	886.00
799.53	897.00
799.78	889.00
800.03	870.00
800.28	859.00
800.53	871.00
800.78	921.00
801.03	868.00
801.28	888.00
801.53	882.00
801.78	896.00
802.03	859.00
802.28	892.00
802.52	916.00
802.77	899.00
803.02	886.00
803.27	892.00
803.52	863.00
803.77	900.00
804.02	878.00
804.27	901.00
804.52	899.00
804.77	914.00
805.02	872.00
805.27	893.00
805.51	873.00
805.76	896.00
806.01	855.00
806.26	870.00
806.51	873.00
806.76	902.00
807.01	886.00
807.26	869.00
807.51	904.00
807.76	872.00
808.00	864.00
808.25	881.00
808.50	885.00
808.75	874.00
809.00	873.00
809.25	877.00
809.50	878.00
809.75	898.00
810.00	862.00
810.24	859.00
810.49	840.00
810.74	869.00
810.99	869.00
811.24	880.00
811.49	894.00
811.74	904.00
811.99	829.00
812.24	860.00
812.48	845.00
812.73	861.00
812.98	845.00
813.23	872.00
813.48	892.00
813.73	891.00
813.98	841.00
814.23	868.00
814.47	867.00
814.72	865.00
814.97	837.00
815.22	886.00
815.47	869.00
815.72	881.00
815.97	846.00
816.22	858.00
816.46	865.00
816.71	902.00
816.96	874.00
817.21	881.00
817.46	855.00
817.71	880.00
817.96	862.00
818.20	868.00
818.45	852.00
818.70	884.00
818.95	860.00
819.20	865.00
819.45	877.00
819.70	890.00
819.94	852.00
820.19	876.00
820.44	886.00
820.69	922.00
820.94	882.00
821.19	880.00
821.44	929.00
821.68	942.00
821.93	869.00
822.18	899.00
822.43	903.00
822.68	913.00
822.93	864.00
823.17	888.00
823.42	898.00
823.67	881.00
823.92	859.00
824.17	870.00
824.42	869.00
824.67	893.00
824.91	873.00
825.16	883.00
825.41	899.00
825.66	886.00
825.91	861.00
826.16	878.00
826.40	883.00
826.65	898.00
826.90	860.00
827.15	888.00
827.40	904.00
827.65	909.00
827.89	820.00
828.14	864.00
828.39	894.00
828.64	891.00
828.89	852.00
829.13	869.00
829.38	866.00
829.63	883.00
829.88	857.00
830.13	866.00
830.38	860.00
830.62	884.00
830.87	863.00
831.12	886.00
831.37	894.00
831.62	906.00
831.86	849.00
832.11	870.00
832.36	866.00
832.61	909.00
832.86	879.00
833.10	883.00
833.35	880.00
833.60	896.00
833.85	876.00
834.10	905.00
834.35	910.00
834.59	928.00
834.84	872.00
835.09	906.00
835.34	865.00
835.59	879.00
835.83	871.00
836.08	882.00
836.33	893.00
836.58	893.00
836.83	874.00
837.07	894.00
837.32	884.00
837.57	875.00
837.82	864.00
838.06	885.00
838.31	913.00
838.56	908.00
838.81	857.00
839.06	902.00
839.30	878.00
839.55	910.00
839.80	860.00
840.05	901.00
840.30	915.00
840.54	900.00
840.79	855.00
841.04	865.00
841.29	893.00
841.53	897.00
841.78	870.00
842.03	857.00
842.28	862.00
842.53	862.00
842.77	875.00
843.02	901.00
843.27	893.00
843.52	897.00
843.76	873.00
844.01	895.00
844.26	876.00
844.51	894.00
844.75	861.00
845.00	851.00
845.25	880.00
845.50	900.00
845.75	868.00
845.99	887.00
846.24	902.00
846.49	903.00
846.74	852.00
846.98	863.00
847.23	873.00
847.48	887.00
847.73	858.00
847.97	894.00
848.22	917.00
848.47	910.00
848.72	879.00
848.96	861.00
849.21	889.00
849.46	886.00
849.71	864.00
849.95	871.00
850.20	877.00
850.45	897.00
850.70	852.00
850.94	866.00
851.19	872.00
851.44	883.00
851.69	846.00
851.93	870.00
852.18	897.00
852.43	900.00
852.68	862.00
852.92	890.00
853.17	919.00
853.42	918.00
853.66	889.00
853.91	897.00
854.16	875.00
854.41	911.00
854.65	862.00
854.90	874.00
855.15	867.00
855.40	881.00
855.64	866.00
855.89	866.00
856.14	883.00
856.39	866.00
856.63	849.00
856.88	860.00
857.13	866.00
857.37	878.00
857.62	855.00
857.87	856.00
858.12	877.00
858.36	903.00
858.61	837.00
858.86	864.00
859.10	875.00
859.35	881.00
859.60	849.00
859.85	841.00
860.09	850.00
860.34	888.00
860.59	876.00
860.83	876.00
861.08	858.00
861.33	912.00
861.58	859.00
861.82	869.00
862.07	890.00
862.32	907.00
862.56	857.00
862.81	873.00
863.06	873.00
863.30	870.00
863.55	871.00
863.80	876.00
864.05	882.00
864.29	884.00
864.54	881.00
864.79	884.00
865.03	890.00
865.28	907.00
865.53	872.00
865.77	855.00
866.02	893.00
866.27	902.00
866.51	871.00
866.76	860.00
867.01	863.00
867.26	887.00
867.50	862.00
867.75	857.00
868.00	888.00
868.24	900.00
868.49	850.00
868.74	870.00
868.98	858.00
869.23	887.00
869.48	882.00
869.72	888.00
869.97	897.00
870.22	912.00
870.46	877.00
870.71	883.00
870.96	886.00
871.20	908.00
871.45	842.00
871.70	884.00
871.94	916.00
872.19	922.00
872.44	886.00
872.68	855.00
872.93	874.00
873.18	896.00
873.42	860.00
873.67	887.00
873.92	906.00
874.16	884.00
874.41	868.00
874.66	890.00
874.90	897.00
875.15	934.00
875.40	889.00
875.64	897.00
875.89	881.00
876.14	879.00
876.38	877.00
876.63	876.00
876.88	891.00
877.12	893.00
877.37	841.00
877.62	877.00
877.86	863.00
878.11	885.00
878.36	852.00
878.60	885.00
878.85	878.00
879.09	897.00
879.34	864.00
879.59	881.00
879.83	898.00
880.08	927.00
880.33	884.00
880.57	886.00
880.82	896.00
881.07	913.00
881.31	866.00
881.56	881.00
881.80	865.00
882.05	880.00
882.30	841.00
882.54	875.00
882.79	905.00
883.04	928.00
883.28	886.00
883.53	883.00
883.77	897.00
884.02	901.00
884.27	859.00
884.51	865.00
884.76	878.00
885.01	896.00
885.25	846.00
885.50	879.00
885.74	871.00
885.99	896.00
886.24	873.00
886.48	873.00
886.73	892.00
886.98	924.00
887.22	885.00
887.47	879.00
887.71	893.00
887.96	889.00
888.21	884.00
888.45	866.00
888.70	873.00
888.94	908.00
889.19	848.00
889.44	870.00
889.68	885.00
889.93	927.00
890.17	887.00
890.42	872.00
890.67	908.00
890.91	965.00
891.16	855.00
891.40	848.00
891.65	874.00
891.90	928.00
892.14	865.00
892.39	888.00
892.63	886.00
892.88	900.00
893.13	881.00
893.37	859.00
893.62	859.00
893.86	904.00
894.11	871.00
894.36	874.00
894.60	869.00
894.85	863.00
895.09	866.00
895.34	912.00
895.59	872.00
895.83	875.00
896.08	844.00
896.32	859.00
896.57	875.00
896.81	901.00
897.06	868.00
897.31	864.00
897.55	892.00
897.80	874.00
898.04	838.00
898.29	863.00
898.53	874.00
898.78	898.00
899.03	863.00
899.27	861.00
899.52	896.00
899.76	893.00
900.01	864.00
900.25	888.00
900.50	905.00
900.75	913.00
900.99	870.00
901.24	936.00
901.48	890.00
901.73	895.00
901.97	855.00
902.22	885.00
902.47	901.00
902.71	888.00
902.96	848.00
903.20	885.00
903.45	904.00
903.69	894.00
903.94	883.00
904.18	851.00
904.43	860.00
904.68	888.00
904.92	856.00
905.17	876.00
905.41	883.00
905.66	913.00
905.90	908.00
906.15	887.00
906.39	885.00
906.64	888.00
906.88	844.00
907.13	846.00
907.38	893.00
907.62	918.00
907.87	861.00
908.11	877.00
908.36	866.00
908.60	884.00
908.85	829.00
909.09	872.00
909.34	870.00
909.58	881.00
909.83	842.00
910.07	868.00
910.32	914.00
910.56	932.00
910.81	849.00
911.06	886.00
911.30	885.00
911.55	886.00
911.79	858.00
912.04	857.00
912.28	856.00
912.53	912.00
912.77	894.00
913.02	889.00
913.26	876.00
913.51	869.00
913.75	856.00
914.00	863.00
914.24	887.00
914.49	888.00
914.73	860.00
914.98	892.00
915.22	919.00
915.47	880.00
915.71	847.00
915.96	851.00
916.20	850.00
916.45	859.00
916.69	849.00
916.94	875.00
917.18	886.00
917.43	898.00
917.67	860.00
917.92	850.00
918.16	885.00
918.41	892.00
918.65	861.00
918.90	861.00
919.14	854.00
919.39	879.00
919.63	869.00
919.88	854.00
920.12	890.00
920.37	898.00
920.61	850.00
920.86	877.00
921.10	886.00
921.35	869.00
921.59	857.00
921.84	888.00
922.08	911.00
922.33	924.00
922.57	845.00
922.82	843.00
923.06	875.00
923.31	894.00
923.55	842.00
923.80	877.00
924.04	879.00
924.29	906.00
924.53	857.00
924.78	880.00
925.02	867.00
925.27	888.00
925.51	874.00
925.76	889.00
926.00	872.00
926.25	868.00
926.49	863.00
926.73	892.00
926.98	883.00
927.22	909.00
927.47	871.00
927.71	866.00
927.96	895.00
928.20	898.00
928.45	880.00
928.69	917.00
928.94	885.00
929.18	886.00
929.43	877.00
929.67	872.00
929.91	882.00
930.16	880.00
930.40	846.00
930.65	852.00
930.89	872.00
931.14	906.00
931.38	874.00
931.63	870.00
931.87	888.00
932.12	889.00
932.36	850.00
932.60	873.00
932.85	902.00
933.09	877.00
933.34	832.00
933.58	909.00
933.83	887.00
934.07	906.00
934.32	870.00
934.56	896.00
934.80	907.00
935.05	927.00
935.29	885.00
935.54	900.00
935.78	899.00
936.03	887.00
936.27	828.00
936.52	852.00
936.76	886.00
937.00	900.00
937.25	877.00
937.49	880.00
937.74	917.00
937.98	906.00
938.23	826.00
938.47	843.00
938.71	866.00
938.96	873.00
939.20	847.00
939.45	852.00
939.69	875.00
939.94	891.00
940.18	844.00
940.42	858.00
940.67	890.00
940.91	877.00
941.16	852.00
941.40	841.00
941.64	872.00
941.89	902.00
942.13	851.00
942.38	868.00
942.62	949.00
942.87	914.00
943.11	864.00
943.35	854.00
943.60	888.00
943.84	908.00
944.09	878.00
944.33	920.00
944.57	912.00
944.82	876.00
945.06	861.00
945.31	884.00
945.55	859.00
945.79	897.00
946.04	860.00
946.28	863.00
946.53	872.00
946.77	893.00
947.01	844.00
947.26	902.00
947.50	881.00
947.75	889.00
947.99	872.00
948.23	887.00
948.48	880.00
948.72	872.00
948.97	852.00
949.21	866.00
949.45	869.00
949.70	903.00
949.94	873.00
950.18	871.00
950.43	892.00
950.67	902.00
950.92	862.00
951.16	858.00
951.40	860.00
951.65	874.00
951.89	873.00
952.13	885.00
952.38	890.00
952.62	894.00
952.87	869.00
953.11	909.00
953.35	910.00
953.60	887.00
953.84	828.00
954.08	850.00
954.33	876.00
954.57	882.00
954.82	877.00
955.06	868.00
955.30	864.00
955.55	884.00
955.79	868.00
956.03	857.00
956.28	867.00
956.52	862.00
956.76	865.00
957.01	896.00
957.25	859.00
957.50	888.00
957.74	856.00
957.98	870.00
958.23	901.00
958.47	885.00
958.71	868.00
958.96	896.00
959.20	919.00
959.44	898.00
959.69	866.00
959.93	887.00
960.17	891.00
960.42	900.00
960.66	892.00
960.90	897.00
961.15	900.00
961.39	908.00
961.64	857.00
961.88	849.00
962.12	908.00
962.37	907.00
962.61	857.00
962.85	847.00
963.10	898.00
963.34	910.00
963.58	865.00
963.83	881.00
964.07	887.00
964.31	900.00
964.56	886.00
964.80	856.00
965.04	881.00
965.29	898.00
965.53	866.00
965.77	846.00
966.02	841.00
966.26	860.00
966.50	844.00
966.74	868.00
966.99	896.00
967.23	909.00
967.47	861.00
967.72	861.00
967.96	876.00
968.20	881.00
968.45	864.00
968.69	886.00
968.93	875.00
969.18	903.00
969.42	888.00
969.66	888.00
969.91	887.00
970.15	909.00
970.39	860.00
970.64	883.00
970.88	896.00
971.12	897.00
971.36	867.00
971.61	868.00
971.85	874.00
972.09	869.00
972.34	856.00
972.58	868.00
972.82	884.00
973.07	902.00
973.31	852.00
973.55	859.00
973.79	888.00
974.04	910.00
974.28	877.00
974.52	865.00
974.77	859.00
975.01	908.00
975.25	868.00
975.50	873.00
975.74	880.00
975.98	896.00
976.22	862.00
976.47	866.00
976.71	884.00
976.95	898.00
977.20	890.00
977.44	890.00
977.68	884.00
977.92	902.00
978.17	864.00
978.41	877.00
978.65	882.00
978.90	880.00
979.14	870.00
979.38	880.00
979.62	876.00
979.87	866.00
980.11	838.00
980.35	862.00
980.59	897.00
980.84	899.00
981.08	864.00
981.32	861.00
981.57	905.00
981.81	884.00
982.05	863.00
982.29	864.00
982.54	881.00
982.78	905.00
983.02	866.00
983.26	876.00
983.51	897.00
983.75	916.00
983.99	847.00
984.23	879.00
984.48	873.00
984.72	906.00
984.96	853.00
985.20	862.00
985.45	941.00
985.69	903.00
985.93	863.00
986.17	877.00
986.42	891.00
986.66	892.00
986.90	828.00
987.14	860.00
987.39	888.00
987.63	874.00
987.87	845.00
988.11	852.00
988.36	885.00
988.60	906.00
988.84	881.00
989.08	858.00
989.33	891.00
989.57	900.00
989.81	836.00
990.05	831.00
990.30	869.00
990.54	869.00
990.78	849.00
991.02	842.00
991.27	875.00
991.51	893.00
991.75	863.00
991.99	887.00
992.23	882.00
992.48	869.00
992.72	853.00
992.96	853.00
993.20	849.00
993.45	865.00
993.69	875.00
993.93	853.00
994.17	892.00
994.41	890.00
994.66	836.00
994.90	858.00
995.14	926.00
995.38	884.00
995.63	858.00
995.87	867.00
996.11	928.00
996.35	901.00
996.59	844.00
996.84	847.00
997.08	876.00
997.32	874.00
997.56	846.00
997.80	844.00
998.05	873.00
998.29	878.00
998.53	854.00
998.77	888.00
999.01	876.00
999.26	887.00
999.50	864.00
999.74	849.00
999.98	875.00
1000.22	894.00
1000.47	849.00
1000.71	838.00
1000.95	890.00
1001.19	873.00
1001.43	850.00
1001.68	856.00
1001.92	877.00
1002.16	857.00
1002.40	831.00
1002.64	869.00
1002.89	881.00
1003.13	891.00
1003.37	884.00
1003.61	857.00
1003.85	902.00
1004.10	880.00
1004.34	867.00
1004.58	863.00
1004.82	896.00
1005.06	887.00
1005.30	853.00
1005.55	853.00
1005.79	891.00
1006.03	890.00
1006.27	861.00
1006.51	856.00
1006.76	881.00
1007.00	899.00
1007.24	871.00
1007.48	881.00
1007.72	889.00
1007.96	888.00
1008.21	877.00
1008.45	898.00
1008.69	900.00
1008.93	904.00
1009.17	869.00
1009.41	887.00
1009.66	905.00
1009.90	876.00
1010.14	850.00
1010.38	880.00
1010.62	892.00
1010.86	906.00
1011.10	861.00
1011.35	837.00
1011.59	850.00
1011.83	853.00
1012.07	849.00
1012.31	885.00
1012.55	870.00
1012.80	887.00
1013.04	874.00
1013.28	868.00
1013.52	882.00
1013.76	888.00
1014.00	841.00
1014.24	880.00
1014.49	898.00
1014.73	921.00
1014.97	897.00
1015.21	882.00
1015.45	910.00
1015.69	883.00
1015.93	857.00
1016.18	881.00
1016.42	924.00
1016.66	908.00
1016.90	856.00
1017.14	840.00
1017.38	856.00
1017.62	881.00
1017.87	869.00
1018.11	869.00
1018.35	867.00
1018.59	888.00
1018.83	852.00
1019.07	886.00
1019.31	901.00
1019.55	908.00
1019.80	870.00
1020.04	892.00
1020.28	874.00
1020.52	894.00
1020.76	861.00
1021.00	849.00
1021.24	865.00
1021.48	860.00
1021.73	871.00
1021.97	901.00
1022.21	888.00
1022.45	897.00
1022.69	858.00
1022.93	855.00
1023.17	898.00
1023.41	914.00
1023.65	874.00
1023.90	910.00
1024.14	906.00
1024.38	867.00
1024.62	844.00
1024.86	862.00
1025.10	873.00
1025.34	872.00
1025.58	853.00
1025.82	863.00
1026.07	899.00
1026.31	878.00
1026.55	846.00
1026.79	857.00
1027.03	887.00
1027.27	892.00
1027.51	838.00
1027.75	830.00
1027.99	862.00
1028.23	904.00
1028.47	874.00
1028.72	855.00
1028.96	891.00
1029.20	888.00
1029.44	882.00
1029.68	888.00
1029.92	896.00
1030.16	899.00
1030.40	844.00
1030.64	870.00
1030.88	881.00
1031.12	862.00
1031.37	834.00
1031.61	870.00
1031.85	903.00
1032.09	887.00
1032.33	853.00
1032.57	912.00
1032.81	877.00
1033.05	907.00
1033.29	870.00
1033.53	868.00
1033.77	924.00
1034.01	925.00
1034.25	884.00
1034.50	886.00
1034.74	897.00
1034.98	920.00
1035.22	866.00
1035.46	882.00
1035.70	922.00
1035.94	912.00
1036.18	886.00
1036.42	872.00
1036.66	857.00
1036.90	873.00
1037.14	839.00
1037.38	849.00
1037.62	878.00
1037.86	869.00
1038.10	859.00
1038.35	858.00
1038.59	891.00
1038.83	907.00
1039.07	889.00
1039.31	897.00
1039.55	865.00
1039.79	866.00
1040.03	836.00
1040.27	842.00
1040.51	892.00
1040.75	921.00
1040.99	873.00
1041.23	874.00
1041.47	890.00
1041.71	909.00
1041.95	868.00
1042.19	876.00
1042.43	893.00
1042.67	905.00
1042.91	874.00
1043.15	859.00
1043.39	907.00
1043.64	896.00
1043.88	865.00
1044.12	868.00
1044.36	936.00
1044.60	918.00
1044.84	875.00
1045.08	879.00
1045.32	881.00
1045.56	900.00
1045.80	875.00
1046.04	872.00
1046.28	904.00
1046.52	902.00
1046.76	865.00
1047.00	866.00
1047.24	904.00
1047.48	881.00
1047.72	856.00
1047.96	868.00
1048.20	915.00
1048.44	884.00
1048.68	850.00
1048.92	883.00
1049.16	883.00
1049.40	886.00
1049.64	852.00
1049.88	880.00
1050.12	886.00
1050.36	905.00
1050.60	874.00
1050.84	885.00
1051.08	883.00
1051.32	886.00
1051.56	887.00
1051.80	862.00
1052.04	890.00
1052.28	917.00
1052.52	851.00
1052.76	837.00
1053.00	884.00
1053.24	898.00
1053.48	863.00
1053.72	873.00
1053.96	895.00
1054.20	899.00
1054.44	863.00
1054.68	887.00
1054.92	901.00
1055.16	865.00
1055.40	864.00
1055.64	886.00
1055.88	906.00
1056.12	925.00
1056.36	858.00
1056.60	870.00
1056.84	905.00
1057.08	897.00
1057.32	867.00
1057.56	855.00
1057.80	867.00
1058.04	917.00
1058.28	857.00
1058.52	856.00
1058.76	900.00
1059.00	913.00
1059.24	860.00
1059.48	850.00
1059.72	894.00
1059.96	894.00
1060.20	904.00
1060.44	894.00
1060.68	912.00
1060.92	894.00
1061.16	850.00
1061.40	874.00
1061.64	884.00
1061.88	880.00
1062.11	853.00
1062.35	848.00
1062.59	858.00
1062.83	900.00
1063.07	861.00
1063.31	853.00
1063.55	873.00
1063.79	914.00
1064.03	866.00
1064.27	855.00
1064.51	892.00
1064.75	888.00
1064.99	880.00
1065.23	872.00
1065.47	871.00
1065.71	917.00
1065.95	869.00
1066.19	887.00
1066.43	906.00
1066.67	900.00
1066.91	871.00
1067.15	869.00
1067.38	882.00
1067.62	884.00
1067.86	852.00
1068.10	890.00
1068.34	913.00
1068.58	914.00
1068.82	852.00
1069.06	826.00
1069.30	887.00
1069.54	912.00
1069.78	893.00
1070.02	887.00
1070.26	904.00
1070.50	918.00
1070.74	874.00
1070.98	906.00
1071.21	906.00
1071.45	891.00
1071.69	845.00
1071.93	871.00
1072.17	893.00
1072.41	901.00
1072.65	878.00
1072.89	892.00
1073.13	885.00
1073.37	884.00
1073.61	866.00
1073.85	897.00
1074.09	880.00
1074.32	870.00
1074.56	865.00
1074.80	944.00
1075.04	1153.00
1075.28	993.00
1075.52	877.00
1075.76	874.00
1076.00	901.00
1076.24	883.00
1076.48	887.00
1076.72	894.00
1076.96	931.00
1077.19	898.00
1077.43	852.00
1077.67	878.00
1077.91	897.00
1078.15	888.00
1078.39	874.00
1078.63	864.00
1078.87	884.00
1079.11	904.00
1079.35	865.00
1079.58	875.00
1079.82	893.00
1080.06	869.00
1080.30	836.00
1080.54	876.00
1080.78	913.00
1081.02	886.00
1081.26	876.00
1081.50	888.00
1081.74	893.00
1081.97	907.00
1082.21	866.00
1082.45	873.00
1082.69	869.00
1082.93	852.00
1083.17	860.00
1083.41	860.00
1083.65	905.00
1083.88	913.00
1084.12	877.00
1084.36	883.00
1084.60	885.00
1084.84	907.00
1085.08	857.00
1085.32	885.00
1085.56	918.00
1085.80	902.00
1086.03	868.00
1086.27	844.00
1086.51	887.00
1086.75	906.00
1086.99	858.00
1087.23	846.00
1087.47	885.00
1087.70	885.00
1087.94	866.00
1088.18	914.00
1088.42	941.00
1088.66	894.00
1088.90	859.00
1089.14	869.00
1089.38	880.00
1089.61	913.00
1089.85	865.00
1090.09	845.00
1090.33	904.00
1090.57	906.00
1090.81	829.00
1091.05	866.00
1091.28	893.00
1091.52	881.00
1091.76	855.00
1092.00	873.00
1092.24	904.00
1092.48	920.00
1092.71	856.00
1092.95	896.00
1093.19	903.00
1093.43	889.00
1093.67	852.00
1093.91	886.00
1094.15	886.00
1094.38	886.00
1094.62	849.00
1094.86	852.00
1095.10	869.00
1095.34	872.00
1095.58	857.00
1095.81	868.00
1096.05	915.00
1096.29	913.00
1096.53	841.00
1096.77	864.00
1097.01	871.00
1097.24	909.00
1097.48	861.00
1097.72	880.00
1097.96	888.00
1098.20	893.00
1098.44	841.00
1098.67	850.00
1098.91	900.00
1099.15	899.00
1099.39	851.00
1099.63	881.00
1099.86	883.00
1100.10	870.00
1100.34	855.00
1100.58	850.00
1100.82	866.00
1101.06	881.00
1101.29	845.00
1101.53	897.00
1101.77	905.00
1102.01	886.00
1102.25	857.00
1102.48	875.00
1102.72	925.00
1102.96	894.00
1103.20	843.00
1103.44	862.00
1103.67	862.00
1103.91	883.00
1104.15	845.00
1104.39	861.00
1104.63	874.00
1104.86	872.00
1105.10	853.00
1105.34	883.00
1105.58	870.00
1105.82	873.00
1106.05	856.00
1106.29	890.00
1106.53	884.00
1106.77	922.00
1107.01	862.00
1107.24	883.00
1107.48	936.00
1107.72	905.00
1107.96	827.00
1108.20	860.00
1108.43	888.00
1108.67	871.00
1108.91	868.00
1109.15	858.00
1109.39	877.00
1109.62	868.00
1109.86	850.00
1110.10	857.00
1110.34	928.00
1110.57	960.00
1110.81	890.00
1111.05	876.00
1111.29	919.00
1111.53	924.00
1111.76	877.00
1112.00	896.00
1112.24	905.00
1112.48	899.00
1112.71	847.00
1112.95	874.00
1113.19	900.00
1113.43	898.00
1113.66	849.00
1113.90	882.00
1114.14	879.00
1114.38	890.00
1114.62	844.00
1114.85	886.00
1115.09	912.00
1115.33	954.00
1115.57	887.00
1115.80	851.00
1116.04	870.00
1116.28	889.00
1116.52	880.00
1116.75	881.00
1116.99	909.00
1117.23	921.00
1117.47	883.00
1117.70	900.00
1117.94	932.00
1118.18	889.00
1118.42	866.00
1118.65	901.00
1118.89	903.00
1119.13	890.00
1119.37	859.00
1119.60	888.00
1119.84	900.00
>>>>>End Processed Spectral Data<<<<<
