SpectraSuite Data File
++++++++++++++++++++++++++++++++++++
Date: Fri Nov 29 15:21:02 CET 2024
User: student
Dark Spectrum Present: No
Reference Spectrum Present: No
Number of Sampled Component Spectra: 1
Spectrometers: HR4C155
Integration Time (usec): 100000 (HR4C155)
Spectra Averaged: 1 (HR4C155)
Boxcar Smoothing: 0 (HR4C155)
Correct for Electrical Dark: No (HR4C155)
Strobe/Lamp Enabled: No (HR4C155)
Correct for Detector Non-linearity: No (HR4C155)
Correct for Stray Light: No (HR4C155)
Number of Pixels in Processed Spectrum: 3648
>>>>>Begin Processed Spectral Data<<<<<
195.39	754.00
195.66	754.00
195.93	754.00
196.20	708.00
196.46	741.00
196.73	869.00
197.00	881.00
197.27	873.00
197.54	900.00
197.81	899.00
198.08	913.00
198.35	951.00
198.61	947.00
198.88	908.00
199.15	895.00
199.42	928.00
199.69	941.00
199.96	921.00
200.23	919.00
200.49	938.00
200.76	946.00
201.03	933.00
201.30	934.00
201.57	991.00
201.84	988.00
202.11	933.00
202.38	958.00
202.64	962.00
202.91	963.00
203.18	906.00
203.45	979.00
203.72	1061.00
203.99	970.00
204.25	963.00
204.52	961.00
204.79	994.00
205.06	982.00
205.33	925.00
205.60	930.00
205.87	985.00
206.13	984.00
206.40	944.00
206.67	946.00
206.94	981.00
207.21	984.00
207.48	963.00
207.75	940.00
208.01	986.00
208.28	987.00
208.55	948.00
208.82	961.00
209.09	963.00
209.36	985.00
209.62	958.00
209.89	968.00
210.16	995.00
210.43	1023.00
210.70	934.00
210.97	955.00
211.23	985.00
211.50	988.00
211.77	945.00
212.04	951.00
212.31	973.00
212.58	1002.00
212.84	954.00
213.11	946.00
213.38	930.00
213.65	968.00
213.92	937.00
214.18	952.00
214.45	1007.00
214.72	1006.00
214.99	932.00
215.26	944.00
215.53	933.00
215.79	977.00
216.06	967.00
216.33	972.00
216.60	955.00
216.87	1001.00
217.13	916.00
217.40	925.00
217.67	971.00
217.94	1003.00
218.21	935.00
218.48	975.00
218.74	1028.00
219.01	988.00
219.28	922.00
219.55	914.00
219.82	974.00
220.08	995.00
220.35	939.00
220.62	964.00
220.89	1017.00
221.16	1033.00
221.42	970.00
221.69	977.00
221.96	976.00
222.23	998.00
222.50	986.00
222.76	991.00
223.03	977.00
223.30	949.00
223.57	921.00
223.84	911.00
224.10	938.00
224.37	969.00
224.64	936.00
224.91	953.00
225.18	990.00
225.44	990.00
225.71	937.00
225.98	970.00
226.25	994.00
226.51	988.00
226.78	944.00
227.05	946.00
227.32	957.00
227.59	955.00
227.85	953.00
228.12	955.00
228.39	987.00
228.66	1012.00
228.92	993.00
229.19	964.00
229.46	986.00
229.73	976.00
230.00	934.00
230.26	977.00
230.53	988.00
230.80	976.00
231.07	927.00
231.33	920.00
231.60	971.00
231.87	989.00
232.14	940.00
232.41	985.00
232.67	975.00
232.94	992.00
233.21	932.00
233.48	952.00
233.74	972.00
234.01	968.00
234.28	918.00
234.55	938.00
234.81	952.00
235.08	983.00
235.35	945.00
235.62	949.00
235.88	964.00
236.15	984.00
236.42	970.00
236.69	973.00
236.95	1002.00
237.22	964.00
237.49	925.00
237.76	937.00
238.02	987.00
238.29	997.00
238.56	958.00
238.83	953.00
239.09	960.00
239.36	1001.00
239.63	962.00
239.90	949.00
240.16	994.00
240.43	1018.00
240.70	948.00
240.97	963.00
241.23	961.00
241.50	970.00
241.77	947.00
242.04	953.00
242.30	933.00
242.57	940.00
242.84	927.00
243.11	947.00
243.37	926.00
243.64	993.00
243.91	945.00
244.18	940.00
244.44	929.00
244.71	958.00
244.98	934.00
245.24	920.00
245.51	957.00
245.78	991.00
246.05	927.00
246.31	940.00
246.58	967.00
246.85	961.00
247.12	936.00
247.38	981.00
247.65	976.00
247.92	990.00
248.18	942.00
248.45	958.00
248.72	974.00
248.99	974.00
249.25	926.00
249.52	952.00
249.79	973.00
250.05	977.00
250.32	946.00
250.59	940.00
250.86	948.00
251.12	954.00
251.39	925.00
251.66	949.00
251.92	987.00
252.19	979.00
252.46	936.00
252.73	975.00
252.99	976.00
253.26	990.00
253.53	935.00
253.79	970.00
254.06	973.00
254.33	954.00
254.60	927.00
254.86	950.00
255.13	989.00
255.40	1005.00
255.66	945.00
255.93	962.00
256.20	981.00
256.46	987.00
256.73	962.00
257.00	973.00
257.26	973.00
257.53	964.00
257.80	946.00
258.07	958.00
258.33	1023.00
258.60	1010.00
258.87	925.00
259.13	951.00
259.40	940.00
259.67	994.00
259.93	963.00
260.20	969.00
260.47	978.00
260.73	948.00
261.00	939.00
261.27	947.00
261.53	977.00
261.80	955.00
262.07	920.00
262.34	957.00
262.60	933.00
262.87	958.00
263.14	945.00
263.40	972.00
263.67	955.00
263.94	952.00
264.20	959.00
264.47	923.00
264.74	920.00
265.00	942.00
265.27	923.00
265.54	947.00
265.80	978.00
266.07	999.00
266.34	932.00
266.60	935.00
266.87	957.00
267.14	988.00
267.40	933.00
267.67	947.00
267.94	978.00
268.20	964.00
268.47	933.00
268.74	940.00
269.00	956.00
269.27	937.00
269.54	908.00
269.80	922.00
270.07	997.00
270.33	957.00
270.60	943.00
270.87	957.00
271.13	949.00
271.40	959.00
271.67	880.00
271.93	898.00
272.20	951.00
272.47	949.00
272.73	899.00
273.00	947.00
273.27	967.00
273.53	1000.00
273.80	938.00
274.07	923.00
274.33	926.00
274.60	968.00
274.86	938.00
275.13	948.00
275.40	940.00
275.66	997.00
275.93	947.00
276.20	942.00
276.46	924.00
276.73	932.00
277.00	930.00
277.26	952.00
277.53	973.00
277.79	950.00
278.06	930.00
278.33	968.00
278.59	964.00
278.86	942.00
279.13	941.00
279.39	956.00
279.66	1001.00
279.93	997.00
280.19	939.00
280.46	958.00
280.72	949.00
280.99	958.00
281.26	937.00
281.52	926.00
281.79	956.00
282.05	964.00
282.32	949.00
282.59	963.00
282.85	1012.00
283.12	1006.00
283.39	940.00
283.65	957.00
283.92	964.00
284.18	973.00
284.45	957.00
284.72	959.00
284.98	946.00
285.25	944.00
285.51	976.00
285.78	968.00
286.05	974.00
286.31	946.00
286.58	896.00
286.84	925.00
287.11	966.00
287.38	976.00
287.64	964.00
287.91	939.00
288.17	969.00
288.44	965.00
288.71	904.00
288.97	931.00
289.24	964.00
289.50	956.00
289.77	946.00
290.04	912.00
290.30	932.00
290.57	983.00
290.83	899.00
291.10	918.00
291.37	961.00
291.63	948.00
291.90	957.00
292.16	963.00
292.43	984.00
292.70	969.00
292.96	901.00
293.23	906.00
293.49	919.00
293.76	967.00
294.02	942.00
294.29	939.00
294.56	970.00
294.82	975.00
295.09	940.00
295.35	938.00
295.62	987.00
295.89	1000.00
296.15	919.00
296.42	911.00
296.68	948.00
296.95	956.00
297.21	927.00
297.48	938.00
297.75	948.00
298.01	993.00
298.28	935.00
298.54	961.00
298.81	964.00
299.07	967.00
299.34	913.00
299.61	936.00
299.87	961.00
300.14	954.00
300.40	944.00
300.67	937.00
300.93	958.00
301.20	1007.00
301.46	936.00
301.73	946.00
302.00	966.00
302.26	948.00
302.53	927.00
302.79	945.00
303.06	971.00
303.32	1004.00
303.59	927.00
303.85	922.00
304.12	936.00
304.39	951.00
304.65	932.00
304.92	958.00
305.18	966.00
305.45	972.00
305.71	926.00
305.98	969.00
306.24	952.00
306.51	957.00
306.77	932.00
307.04	945.00
307.31	975.00
307.57	982.00
307.84	912.00
308.10	936.00
308.37	944.00
308.63	956.00
308.90	925.00
309.16	947.00
309.43	985.00
309.69	941.00
309.96	934.00
310.22	937.00
310.49	951.00
310.76	965.00
311.02	909.00
311.29	924.00
311.55	933.00
311.82	954.00
312.08	942.00
312.35	965.00
312.61	993.00
312.88	979.00
313.14	924.00
313.41	929.00
313.67	938.00
313.94	961.00
314.20	945.00
314.47	939.00
314.73	929.00
315.00	937.00
315.26	922.00
315.53	954.00
315.79	957.00
316.06	977.00
316.32	951.00
316.59	958.00
316.85	949.00
317.12	969.00
317.39	911.00
317.65	927.00
317.92	942.00
318.18	946.00
318.45	924.00
318.71	979.00
318.98	990.00
319.24	978.00
319.51	945.00
319.77	936.00
320.04	944.00
320.30	952.00
320.57	936.00
320.83	930.00
321.10	905.00
321.36	951.00
321.63	928.00
321.89	932.00
322.16	974.00
322.42	972.00
322.69	928.00
322.95	928.00
323.22	964.00
323.48	987.00
323.75	937.00
324.01	949.00
324.28	978.00
324.54	987.00
324.80	947.00
325.07	957.00
325.33	968.00
325.60	957.00
325.86	927.00
326.13	926.00
326.39	939.00
326.66	943.00
326.92	887.00
327.19	915.00
327.45	983.00
327.72	993.00
327.98	941.00
328.25	935.00
328.51	953.00
328.78	969.00
329.04	924.00
329.31	945.00
329.57	974.00
329.84	948.00
330.10	923.00
330.37	947.00
330.63	987.00
330.89	985.00
331.16	929.00
331.42	942.00
331.69	972.00
331.95	956.00
332.22	946.00
332.48	988.00
332.75	968.00
333.01	938.00
333.28	926.00
333.54	948.00
333.81	949.00
334.07	976.00
334.34	952.00
334.60	953.00
334.86	998.00
335.13	999.00
335.39	939.00
335.66	934.00
335.92	984.00
336.19	978.00
336.45	894.00
336.72	917.00
336.98	929.00
337.24	961.00
337.51	908.00
337.77	940.00
338.04	969.00
338.30	967.00
338.57	942.00
338.83	946.00
339.10	969.00
339.36	968.00
339.63	937.00
339.89	901.00
340.15	944.00
340.42	973.00
340.68	956.00
340.95	950.00
341.21	947.00
341.48	956.00
341.74	892.00
342.00	895.00
342.27	945.00
342.53	959.00
342.80	940.00
343.06	942.00
343.33	956.00
343.59	981.00
343.85	941.00
344.12	939.00
344.38	1026.00
344.65	1000.00
344.91	924.00
345.18	920.00
345.44	936.00
345.70	939.00
345.97	892.00
346.23	911.00
346.50	941.00
346.76	965.00
347.03	953.00
347.29	954.00
347.55	948.00
347.82	949.00
348.08	901.00
348.35	930.00
348.61	1007.00
348.87	974.00
349.14	931.00
349.40	906.00
349.67	953.00
349.93	947.00
350.20	945.00
350.46	949.00
350.72	979.00
350.99	940.00
351.25	949.00
351.52	941.00
351.78	957.00
352.04	958.00
352.31	933.00
352.57	946.00
352.84	953.00
353.10	962.00
353.36	944.00
353.63	933.00
353.89	952.00
354.16	973.00
354.42	941.00
354.68	938.00
354.95	985.00
355.21	980.00
355.48	922.00
355.74	939.00
356.00	989.00
356.27	991.00
356.53	926.00
356.80	919.00
357.06	969.00
357.32	971.00
357.59	956.00
357.85	972.00
358.11	1005.00
358.38	963.00
358.64	926.00
358.91	936.00
359.17	947.00
359.43	970.00
359.70	956.00
359.96	953.00
360.22	985.00
360.49	965.00
360.75	940.00
361.02	918.00
361.28	936.00
361.54	955.00
361.81	936.00
362.07	935.00
362.33	936.00
362.60	951.00
362.86	921.00
363.13	966.00
363.39	977.00
363.65	981.00
363.92	891.00
364.18	893.00
364.44	949.00
364.71	973.00
364.97	942.00
365.24	935.00
365.50	985.00
365.76	990.00
366.03	936.00
366.29	946.00
366.55	977.00
366.82	964.00
367.08	900.00
367.34	940.00
367.61	984.00
367.87	964.00
368.13	937.00
368.40	938.00
368.66	1008.00
368.93	990.00
369.19	913.00
369.45	910.00
369.72	937.00
369.98	940.00
370.24	909.00
370.51	932.00
370.77	955.00
371.03	954.00
371.30	921.00
371.56	965.00
371.82	988.00
372.09	970.00
372.35	940.00
372.61	970.00
372.88	938.00
373.14	950.00
373.40	924.00
373.67	932.00
373.93	947.00
374.19	970.00
374.46	930.00
374.72	924.00
374.98	944.00
375.25	956.00
375.51	952.00
375.77	979.00
376.04	979.00
376.30	964.00
376.56	920.00
376.83	941.00
377.09	977.00
377.35	986.00
377.62	945.00
377.88	947.00
378.14	939.00
378.41	946.00
378.67	925.00
378.93	911.00
379.20	953.00
379.46	947.00
379.72	929.00
379.99	918.00
380.25	932.00
380.51	912.00
380.77	909.00
381.04	945.00
381.30	981.00
381.56	993.00
381.83	964.00
382.09	932.00
382.35	931.00
382.62	959.00
382.88	947.00
383.14	943.00
383.41	944.00
383.67	935.00
383.93	944.00
384.20	942.00
384.46	956.00
384.72	976.00
384.98	914.00
385.25	929.00
385.51	966.00
385.77	953.00
386.04	906.00
386.30	909.00
386.56	959.00
386.82	1017.00
387.09	931.00
387.35	962.00
387.61	1037.00
387.88	995.00
388.14	952.00
388.40	957.00
388.67	933.00
388.93	933.00
389.19	930.00
389.45	930.00
389.72	946.00
389.98	979.00
390.24	944.00
390.51	928.00
390.77	965.00
391.03	981.00
391.29	913.00
391.56	930.00
391.82	968.00
392.08	994.00
392.35	948.00
392.61	937.00
392.87	979.00
393.13	971.00
393.40	927.00
393.66	935.00
393.92	955.00
394.18	980.00
394.45	906.00
394.71	927.00
394.97	960.00
395.24	933.00
395.50	918.00
395.76	951.00
396.02	973.00
396.29	962.00
396.55	893.00
396.81	877.00
397.07	936.00
397.34	922.00
397.60	900.00
397.86	925.00
398.12	950.00
398.39	973.00
398.65	918.00
398.91	931.00
399.17	946.00
399.44	924.00
399.70	891.00
399.96	933.00
400.22	950.00
400.49	968.00
400.75	941.00
401.01	933.00
401.27	936.00
401.54	959.00
401.80	925.00
402.06	910.00
402.32	952.00
402.59	949.00
402.85	911.00
403.11	927.00
403.37	930.00
403.64	978.00
403.90	924.00
404.16	933.00
404.42	942.00
404.69	938.00
404.95	928.00
405.21	909.00
405.47	943.00
405.74	985.00
406.00	942.00
406.26	926.00
406.52	957.00
406.79	975.00
407.05	928.00
407.31	939.00
407.57	935.00
407.83	949.00
408.10	901.00
408.36	922.00
408.62	946.00
408.88	938.00
409.15	919.00
409.41	909.00
409.67	915.00
409.93	955.00
410.20	939.00
410.46	930.00
410.72	931.00
410.98	951.00
411.24	916.00
411.51	927.00
411.77	932.00
412.03	955.00
412.29	948.00
412.55	961.00
412.82	939.00
413.08	956.00
413.34	939.00
413.60	939.00
413.87	944.00
414.13	954.00
414.39	905.00
414.65	944.00
414.91	947.00
415.18	935.00
415.44	918.00
415.70	925.00
415.96	939.00
416.22	956.00
416.49	917.00
416.75	921.00
417.01	958.00
417.27	951.00
417.53	921.00
417.80	947.00
418.06	970.00
418.32	976.00
418.58	933.00
418.84	914.00
419.11	955.00
419.37	985.00
419.63	930.00
419.89	917.00
420.15	933.00
420.42	931.00
420.68	908.00
420.94	935.00
421.20	937.00
421.46	946.00
421.72	941.00
421.99	941.00
422.25	958.00
422.51	960.00
422.77	940.00
423.03	945.00
423.30	962.00
423.56	974.00
423.82	947.00
424.08	957.00
424.34	960.00
424.60	956.00
424.87	918.00
425.13	914.00
425.39	939.00
425.65	938.00
425.91	904.00
426.18	937.00
426.44	954.00
426.70	930.00
426.96	900.00
427.22	894.00
427.48	927.00
427.75	935.00
428.01	880.00
428.27	912.00
428.53	968.00
428.79	946.00
429.05	915.00
429.32	928.00
429.58	968.00
429.84	928.00
430.10	941.00
430.36	942.00
430.62	976.00
430.88	972.00
431.15	940.00
431.41	938.00
431.67	946.00
431.93	934.00
432.19	885.00
432.45	921.00
432.72	943.00
432.98	941.00
433.24	946.00
433.50	1024.00
433.76	939.00
434.02	937.00
434.28	906.00
434.55	928.00
434.81	967.00
435.07	975.00
435.33	904.00
435.59	914.00
435.85	952.00
436.11	947.00
436.38	913.00
436.64	926.00
436.90	941.00
437.16	929.00
437.42	916.00
437.68	910.00
437.94	940.00
438.21	967.00
438.47	958.00
438.73	946.00
438.99	946.00
439.25	972.00
439.51	925.00
439.77	940.00
440.03	954.00
440.30	953.00
440.56	933.00
440.82	965.00
441.08	967.00
441.34	964.00
441.60	910.00
441.86	931.00
442.12	957.00
442.39	962.00
442.65	921.00
442.91	929.00
443.17	924.00
443.43	954.00
443.69	946.00
443.95	920.00
444.21	933.00
444.47	953.00
444.74	905.00
445.00	926.00
445.26	943.00
445.52	946.00
445.78	927.00
446.04	940.00
446.30	987.00
446.56	951.00
446.82	911.00
447.09	921.00
447.35	961.00
447.61	957.00
447.87	945.00
448.13	947.00
448.39	982.00
448.65	958.00
448.91	921.00
449.17	910.00
449.43	924.00
449.70	939.00
449.96	891.00
450.22	898.00
450.48	936.00
450.74	981.00
451.00	927.00
451.26	913.00
451.52	934.00
451.78	938.00
452.04	930.00
452.31	943.00
452.57	950.00
452.83	929.00
453.09	920.00
453.35	926.00
453.61	942.00
453.87	940.00
454.13	932.00
454.39	947.00
454.65	991.00
454.91	997.00
455.17	919.00
455.44	924.00
455.70	947.00
455.96	950.00
456.22	906.00
456.48	913.00
456.74	947.00
457.00	909.00
457.26	875.00
457.52	926.00
457.78	942.00
458.04	941.00
458.30	903.00
458.56	931.00
458.82	960.00
459.09	932.00
459.35	879.00
459.61	889.00
459.87	958.00
460.13	972.00
460.39	920.00
460.65	906.00
460.91	983.00
461.17	927.00
461.43	887.00
461.69	923.00
461.95	954.00
462.21	932.00
462.47	946.00
462.73	976.00
462.99	965.00
463.26	970.00
463.52	916.00
463.78	888.00
464.04	925.00
464.30	935.00
464.56	909.00
464.82	932.00
465.08	984.00
465.34	969.00
465.60	935.00
465.86	933.00
466.12	924.00
466.38	921.00
466.64	915.00
466.90	909.00
467.16	951.00
467.42	948.00
467.68	923.00
467.94	945.00
468.20	965.00
468.46	946.00
468.72	915.00
468.98	947.00
469.25	942.00
469.51	907.00
469.77	951.00
470.03	932.00
470.29	948.00
470.55	934.00
470.81	914.00
471.07	933.00
471.33	944.00
471.59	957.00
471.85	932.00
472.11	942.00
472.37	957.00
472.63	948.00
472.89	938.00
473.15	914.00
473.41	931.00
473.67	941.00
473.93	906.00
474.19	902.00
474.45	925.00
474.71	937.00
474.97	907.00
475.23	914.00
475.49	943.00
475.75	944.00
476.01	944.00
476.27	949.00
476.53	981.00
476.79	957.00
477.05	931.00
477.31	932.00
477.57	959.00
477.83	941.00
478.09	886.00
478.35	930.00
478.61	966.00
478.87	933.00
479.13	896.00
479.39	935.00
479.65	968.00
479.91	952.00
480.17	921.00
480.43	941.00
480.69	936.00
480.95	952.00
481.21	936.00
481.47	935.00
481.73	944.00
481.99	928.00
482.25	886.00
482.51	894.00
482.77	951.00
483.03	954.00
483.29	926.00
483.55	916.00
483.81	958.00
484.07	945.00
484.33	902.00
484.59	926.00
484.85	956.00
485.11	957.00
485.37	928.00
485.63	924.00
485.89	917.00
486.15	935.00
486.41	905.00
486.67	913.00
486.93	945.00
487.19	933.00
487.45	917.00
487.71	912.00
487.97	965.00
488.23	965.00
488.49	918.00
488.75	917.00
489.01	957.00
489.27	965.00
489.53	907.00
489.79	902.00
490.05	932.00
490.31	969.00
490.57	946.00
490.83	990.00
491.08	944.00
491.34	908.00
491.60	912.00
491.86	937.00
492.12	991.00
492.38	973.00
492.64	905.00
492.90	909.00
493.16	952.00
493.42	925.00
493.68	891.00
493.94	926.00
494.20	918.00
494.46	937.00
494.72	923.00
494.98	907.00
495.24	920.00
495.50	933.00
495.76	949.00
496.02	945.00
496.28	948.00
496.54	961.00
496.80	926.00
497.05	892.00
497.31	936.00
497.57	960.00
497.83	910.00
498.09	952.00
498.35	973.00
498.61	952.00
498.87	929.00
499.13	930.00
499.39	945.00
499.65	937.00
499.91	942.00
500.17	910.00
500.43	997.00
500.69	1018.00
500.95	917.00
501.20	941.00
501.46	955.00
501.72	965.00
501.98	959.00
502.24	941.00
502.50	965.00
502.76	927.00
503.02	925.00
503.28	934.00
503.54	988.00
503.80	989.00
504.06	947.00
504.32	951.00
504.58	952.00
504.83	932.00
505.09	906.00
505.35	922.00
505.61	926.00
505.87	944.00
506.13	921.00
506.39	917.00
506.65	964.00
506.91	996.00
507.17	939.00
507.43	927.00
507.68	952.00
507.94	980.00
508.20	924.00
508.46	895.00
508.72	956.00
508.98	965.00
509.24	906.00
509.50	930.00
509.76	909.00
510.02	934.00
510.28	914.00
510.53	930.00
510.79	946.00
511.05	959.00
511.31	904.00
511.57	925.00
511.83	943.00
512.09	967.00
512.35	917.00
512.61	926.00
512.87	948.00
513.12	968.00
513.38	923.00
513.64	925.00
513.90	955.00
514.16	979.00
514.42	925.00
514.68	929.00
514.94	940.00
515.20	942.00
515.45	915.00
515.71	919.00
515.97	940.00
516.23	942.00
516.49	916.00
516.75	933.00
517.01	952.00
517.27	932.00
517.53	910.00
517.78	927.00
518.04	964.00
518.30	929.00
518.56	906.00
518.82	953.00
519.08	975.00
519.34	937.00
519.60	916.00
519.85	924.00
520.11	945.00
520.37	953.00
520.63	912.00
520.89	937.00
521.15	939.00
521.41	921.00
521.66	915.00
521.92	924.00
522.18	949.00
522.44	961.00
522.70	938.00
522.96	916.00
523.22	962.00
523.48	948.00
523.73	919.00
523.99	917.00
524.25	977.00
524.51	978.00
524.77	923.00
525.03	906.00
525.29	944.00
525.54	942.00
525.80	914.00
526.06	915.00
526.32	913.00
526.58	931.00
526.84	911.00
527.09	906.00
527.35	908.00
527.61	923.00
527.87	908.00
528.13	938.00
528.39	940.00
528.65	936.00
528.90	891.00
529.16	906.00
529.42	901.00
529.68	919.00
529.94	910.00
530.20	912.00
530.45	900.00
530.71	931.00
530.97	893.00
531.23	910.00
531.49	961.00
531.75	957.00
532.00	936.00
532.26	913.00
532.52	949.00
532.78	921.00
533.04	913.00
533.30	916.00
533.55	942.00
533.81	949.00
534.07	920.00
534.33	928.00
534.59	949.00
534.85	956.00
535.10	910.00
535.36	898.00
535.62	947.00
535.88	925.00
536.14	895.00
536.39	915.00
536.65	965.00
536.91	957.00
537.17	916.00
537.43	921.00
537.69	972.00
537.94	927.00
538.20	894.00
538.46	929.00
538.72	930.00
538.98	939.00
539.23	902.00
539.49	908.00
539.75	968.00
540.01	944.00
540.27	917.00
540.52	953.00
540.78	948.00
541.04	965.00
541.30	905.00
541.56	890.00
541.81	971.00
542.07	1032.00
542.33	938.00
542.59	929.00
542.85	932.00
543.10	944.00
543.36	915.00
543.62	941.00
543.88	949.00
544.14	951.00
544.39	908.00
544.65	916.00
544.91	958.00
545.17	941.00
545.43	902.00
545.68	906.00
545.94	927.00
546.20	945.00
546.46	916.00
546.71	909.00
546.97	950.00
547.23	958.00
547.49	915.00
547.75	915.00
548.00	936.00
548.26	966.00
548.52	915.00
548.78	918.00
549.03	928.00
549.29	920.00
549.55	908.00
549.81	935.00
550.07	941.00
550.32	947.00
550.58	912.00
550.84	946.00
551.10	932.00
551.35	940.00
551.61	911.00
551.87	923.00
552.13	942.00
552.39	917.00
552.64	892.00
552.90	932.00
553.16	936.00
553.42	929.00
553.67	891.00
553.93	905.00
554.19	955.00
554.45	972.00
554.70	930.00
554.96	924.00
555.22	946.00
555.48	950.00
555.73	916.00
555.99	912.00
556.25	961.00
556.51	942.00
556.76	914.00
557.02	936.00
557.28	954.00
557.54	938.00
557.79	906.00
558.05	933.00
558.31	939.00
558.57	949.00
558.82	915.00
559.08	898.00
559.34	908.00
559.60	942.00
559.85	931.00
560.11	929.00
560.37	936.00
560.63	930.00
560.88	899.00
561.14	904.00
561.40	945.00
561.66	913.00
561.91	926.00
562.17	938.00
562.43	952.00
562.68	942.00
562.94	930.00
563.20	945.00
563.46	948.00
563.71	971.00
563.97	908.00
564.23	933.00
564.49	954.00
564.74	943.00
565.00	912.00
565.26	928.00
565.51	943.00
565.77	926.00
566.03	897.00
566.29	917.00
566.54	904.00
566.80	934.00
567.06	917.00
567.31	944.00
567.57	947.00
567.83	931.00
568.09	930.00
568.34	921.00
568.60	933.00
568.86	973.00
569.11	961.00
569.37	918.00
569.63	950.00
569.89	949.00
570.14	869.00
570.40	896.00
570.66	926.00
570.91	933.00
571.17	902.00
571.43	936.00
571.69	972.00
571.94	988.00
572.20	905.00
572.46	914.00
572.71	956.00
572.97	931.00
573.23	887.00
573.48	905.00
573.74	932.00
574.00	960.00
574.26	910.00
574.51	909.00
574.77	956.00
575.03	947.00
575.28	910.00
575.54	907.00
575.80	922.00
576.05	921.00
576.31	887.00
576.57	916.00
576.82	942.00
577.08	932.00
577.34	907.00
577.59	937.00
577.85	963.00
578.11	938.00
578.37	911.00
578.62	909.00
578.88	948.00
579.14	978.00
579.39	942.00
579.65	942.00
579.91	944.00
580.16	952.00
580.42	937.00
580.68	927.00
580.93	953.00
581.19	920.00
581.45	895.00
581.70	931.00
581.96	961.00
582.22	964.00
582.47	920.00
582.73	924.00
582.99	977.00
583.24	966.00
583.50	908.00
583.76	898.00
584.01	930.00
584.27	948.00
584.53	931.00
584.78	945.00
585.04	930.00
585.30	949.00
585.55	933.00
585.81	920.00
586.07	971.00
586.32	970.00
586.58	918.00
586.83	916.00
587.09	945.00
587.35	946.00
587.60	911.00
587.86	916.00
588.12	929.00
588.37	947.00
588.63	921.00
588.89	949.00
589.14	966.00
589.40	946.00
589.66	904.00
589.91	924.00
590.17	945.00
590.43	892.00
590.68	882.00
590.94	903.00
591.19	950.00
591.45	942.00
591.71	918.00
591.96	935.00
592.22	947.00
592.48	964.00
592.73	901.00
592.99	932.00
593.25	950.00
593.50	961.00
593.76	912.00
594.01	940.00
594.27	968.00
594.53	957.00
594.78	921.00
595.04	927.00
595.30	953.00
595.55	952.00
595.81	905.00
596.06	928.00
596.32	962.00
596.58	955.00
596.83	920.00
597.09	959.00
597.35	964.00
597.60	933.00
597.86	910.00
598.11	934.00
598.37	981.00
598.63	962.00
598.88	917.00
599.14	928.00
599.39	980.00
599.65	965.00
599.91	880.00
600.16	918.00
600.42	947.00
600.67	969.00
600.93	934.00
601.19	974.00
601.44	1000.00
601.70	974.00
601.95	938.00
602.21	942.00
602.47	926.00
602.72	959.00
602.98	939.00
603.23	950.00
603.49	975.00
603.75	975.00
604.00	957.00
604.26	951.00
604.51	955.00
604.77	998.00
605.03	909.00
605.28	934.00
605.54	984.00
605.79	994.00
606.05	902.00
606.31	922.00
606.56	968.00
606.82	989.00
607.07	960.00
607.33	965.00
607.59	991.00
607.84	980.00
608.10	941.00
608.35	967.00
608.61	1000.00
608.86	989.00
609.12	971.00
609.38	995.00
609.63	1022.00
609.89	992.00
610.14	946.00
610.40	984.00
610.65	1006.00
610.91	1013.00
611.17	977.00
611.42	988.00
611.68	1035.00
611.93	1043.00
612.19	989.00
612.44	1001.00
612.70	1022.00
612.96	991.00
613.21	962.00
613.47	978.00
613.72	1010.00
613.98	1047.00
614.23	1012.00
614.49	1025.00
614.75	1036.00
615.00	1043.00
615.26	1019.00
615.51	1006.00
615.77	1042.00
616.02	1058.00
616.28	1048.00
616.53	1048.00
616.79	1059.00
617.05	1064.00
617.30	1037.00
617.56	1070.00
617.81	1097.00
618.07	1095.00
618.32	1074.00
618.58	1101.00
618.83	1105.00
619.09	1114.00
619.34	1106.00
619.60	1113.00
619.86	1139.00
620.11	1166.00
620.37	1161.00
620.62	1175.00
620.88	1174.00
621.13	1181.00
621.39	1165.00
621.64	1206.00
621.90	1247.00
622.15	1226.00
622.41	1190.00
622.66	1219.00
622.92	1240.00
623.18	1228.00
623.43	1156.00
623.69	1199.00
623.94	1260.00
624.20	1263.00
624.45	1253.00
624.71	1302.00
624.96	1341.00
625.22	1417.00
625.47	1369.00
625.73	1374.00
625.98	1387.00
626.24	1359.00
626.49	1331.00
626.75	1378.00
627.00	1479.00
627.26	1484.00
627.51	1447.00
627.77	1489.00
628.02	1520.00
628.28	1595.00
628.53	1542.00
628.79	1598.00
629.05	1636.00
629.30	1725.00
629.56	1814.00
629.81	1896.00
630.07	1971.00
630.32	1941.00
630.58	1830.00
630.83	1838.00
631.09	1934.00
631.34	2012.00
631.60	2049.00
631.85	2152.00
632.11	2302.00
632.36	2312.00
632.62	2206.00
632.87	2308.00
633.13	2363.00
633.38	2284.00
633.64	2211.00
633.89	2366.00
634.15	2675.00
634.40	2768.00
634.66	2509.00
634.91	2526.00
635.17	2643.00
635.42	2839.00
635.68	2980.00
635.93	3043.00
636.18	3328.00
636.44	3508.00
636.69	3316.00
636.95	3086.00
637.20	3179.00
637.46	3318.00
637.71	3330.00
637.97	3292.00
638.22	3157.00
638.48	3124.00
638.73	3287.00
638.99	3324.00
639.24	3298.00
639.50	3301.00
639.75	3536.00
640.01	3433.00
640.26	3057.00
640.52	2999.00
640.77	3013.00
641.03	3155.00
641.28	3315.00
641.54	3289.00
641.79	3053.00
642.04	2849.00
642.30	2710.00
642.55	2592.00
642.81	2471.00
643.06	2498.00
643.32	2488.00
643.57	2406.00
643.83	2271.00
644.08	2336.00
644.34	2402.00
644.59	2505.00
644.85	2481.00
645.10	2356.00
645.35	2264.00
645.61	2186.00
645.86	2042.00
646.12	1975.00
646.37	1968.00
646.63	1896.00
646.88	1814.00
647.14	1709.00
647.39	1654.00
647.65	1698.00
647.90	1713.00
648.15	1756.00
648.41	1661.00
648.66	1557.00
648.92	1490.00
649.17	1531.00
649.43	1535.00
649.68	1417.00
649.94	1366.00
650.19	1318.00
650.44	1300.00
650.70	1280.00
650.95	1250.00
651.21	1252.00
651.46	1276.00
651.72	1273.00
651.97	1234.00
652.23	1210.00
652.48	1245.00
652.73	1221.00
652.99	1143.00
653.24	1154.00
653.50	1153.00
653.75	1121.00
654.01	1113.00
654.26	1127.00
654.51	1118.00
654.77	1129.00
655.02	1082.00
655.28	1060.00
655.53	1062.00
655.79	1072.00
656.04	1054.00
656.29	1048.00
656.55	1033.00
656.80	1082.00
657.06	1003.00
657.31	1003.00
657.56	992.00
657.82	1000.00
658.07	991.00
658.33	1013.00
658.58	1019.00
658.84	1048.00
659.09	1001.00
659.34	994.00
659.60	1009.00
659.85	1005.00
660.11	956.00
660.36	959.00
660.61	971.00
660.87	949.00
661.12	931.00
661.38	970.00
661.63	985.00
661.88	980.00
662.14	966.00
662.39	973.00
662.65	1006.00
662.90	1023.00
663.15	943.00
663.41	959.00
663.66	1003.00
663.92	1010.00
664.17	954.00
664.42	967.00
664.68	984.00
664.93	955.00
665.19	915.00
665.44	915.00
665.69	935.00
665.95	955.00
666.20	917.00
666.45	954.00
666.71	958.00
666.96	965.00
667.22	907.00
667.47	924.00
667.72	929.00
667.98	948.00
668.23	922.00
668.49	973.00
668.74	972.00
668.99	970.00
669.25	919.00
669.50	915.00
669.75	938.00
670.01	954.00
670.26	901.00
670.52	923.00
670.77	968.00
671.02	948.00
671.28	902.00
671.53	940.00
671.78	948.00
672.04	934.00
672.29	916.00
672.54	900.00
672.80	945.00
673.05	958.00
673.31	907.00
673.56	963.00
673.81	973.00
674.07	954.00
674.32	920.00
674.57	932.00
674.83	932.00
675.08	951.00
675.33	932.00
675.59	937.00
675.84	963.00
676.09	948.00
676.35	930.00
676.60	942.00
676.86	948.00
677.11	972.00
677.36	926.00
677.62	934.00
677.87	966.00
678.12	1002.00
678.38	923.00
678.63	912.00
678.88	962.00
679.14	978.00
679.39	907.00
679.64	937.00
679.90	926.00
680.15	954.00
680.40	936.00
680.66	918.00
680.91	939.00
681.16	932.00
681.42	902.00
681.67	923.00
681.92	940.00
682.18	974.00
682.43	910.00
682.68	908.00
682.94	926.00
683.19	925.00
683.44	905.00
683.70	931.00
683.95	929.00
684.20	935.00
684.46	930.00
684.71	950.00
684.96	939.00
685.22	940.00
685.47	916.00
685.72	914.00
685.98	954.00
686.23	899.00
686.48	901.00
686.74	961.00
686.99	973.00
687.24	937.00
687.50	906.00
687.75	924.00
688.00	932.00
688.25	949.00
688.51	937.00
688.76	940.00
689.01	927.00
689.27	926.00
689.52	874.00
689.77	900.00
690.03	893.00
690.28	910.00
690.53	918.00
690.79	932.00
691.04	943.00
691.29	945.00
691.54	900.00
691.80	925.00
692.05	944.00
692.30	955.00
692.56	923.00
692.81	949.00
693.06	944.00
693.32	913.00
693.57	907.00
693.82	943.00
694.07	953.00
694.33	944.00
694.58	916.00
694.83	931.00
695.09	931.00
695.34	973.00
695.59	938.00
695.84	924.00
696.10	941.00
696.35	948.00
696.60	878.00
696.86	910.00
697.11	931.00
697.36	948.00
697.61	913.00
697.87	933.00
698.12	920.00
698.37	923.00
698.63	921.00
698.88	915.00
699.13	946.00
699.38	942.00
699.64	886.00
699.89	900.00
700.14	924.00
700.39	925.00
700.65	909.00
700.90	947.00
701.15	938.00
701.40	949.00
701.66	913.00
701.91	923.00
702.16	919.00
702.42	930.00
702.67	882.00
702.92	907.00
703.17	921.00
703.43	940.00
703.68	918.00
703.93	973.00
704.18	980.00
704.44	941.00
704.69	901.00
704.94	931.00
705.19	925.00
705.45	940.00
705.70	925.00
705.95	909.00
706.20	914.00
706.46	946.00
706.71	923.00
706.96	907.00
707.21	935.00
707.47	926.00
707.72	913.00
707.97	925.00
708.22	955.00
708.48	961.00
708.73	890.00
708.98	904.00
709.23	931.00
709.49	931.00
709.74	905.00
709.99	910.00
710.24	928.00
710.50	933.00
710.75	933.00
711.00	956.00
711.25	939.00
711.50	929.00
711.76	892.00
712.01	910.00
712.26	894.00
712.51	918.00
712.77	881.00
713.02	900.00
713.27	901.00
713.52	932.00
713.78	924.00
714.03	916.00
714.28	909.00
714.53	936.00
714.78	908.00
715.04	950.00
715.29	956.00
715.54	957.00
715.79	913.00
716.05	948.00
716.30	961.00
716.55	950.00
716.80	911.00
717.05	915.00
717.31	939.00
717.56	951.00
717.81	922.00
718.06	916.00
718.31	911.00
718.57	941.00
718.82	914.00
719.07	954.00
719.32	940.00
719.57	958.00
719.83	923.00
720.08	941.00
720.33	927.00
720.58	912.00
720.83	894.00
721.09	953.00
721.34	935.00
721.59	944.00
721.84	886.00
722.09	916.00
722.35	941.00
722.60	941.00
722.85	891.00
723.10	914.00
723.35	907.00
723.61	937.00
723.86	952.00
724.11	930.00
724.36	922.00
724.61	917.00
724.87	907.00
725.12	919.00
725.37	916.00
725.62	917.00
725.87	901.00
726.12	906.00
726.38	912.00
726.63	934.00
726.88	900.00
727.13	913.00
727.38	931.00
727.64	939.00
727.89	907.00
728.14	912.00
728.39	910.00
728.64	938.00
728.89	920.00
729.15	957.00
729.40	955.00
729.65	955.00
729.90	913.00
730.15	923.00
730.40	948.00
730.66	938.00
730.91	895.00
731.16	919.00
731.41	952.00
731.66	950.00
731.91	925.00
732.17	956.00
732.42	946.00
732.67	918.00
732.92	906.00
733.17	927.00
733.42	933.00
733.68	936.00
733.93	901.00
734.18	913.00
734.43	892.00
734.68	920.00
734.93	914.00
735.18	934.00
735.44	961.00
735.69	950.00
735.94	891.00
736.19	906.00
736.44	912.00
736.69	972.00
736.95	891.00
737.20	932.00
737.45	949.00
737.70	921.00
737.95	911.00
738.20	938.00
738.45	945.00
738.70	932.00
738.96	922.00
739.21	961.00
739.46	937.00
739.71	956.00
739.96	919.00
740.21	957.00
740.46	1004.00
740.72	965.00
740.97	926.00
741.22	971.00
741.47	937.00
741.72	955.00
741.97	898.00
742.22	923.00
742.47	927.00
742.73	918.00
742.98	908.00
743.23	891.00
743.48	910.00
743.73	941.00
743.98	908.00
744.23	930.00
744.48	955.00
744.74	939.00
744.99	907.00
745.24	939.00
745.49	936.00
745.74	941.00
745.99	906.00
746.24	921.00
746.49	917.00
746.74	916.00
747.00	925.00
747.25	926.00
747.50	894.00
747.75	902.00
748.00	864.00
748.25	904.00
748.50	907.00
748.75	930.00
749.00	940.00
749.26	974.00
749.51	952.00
749.76	948.00
750.01	893.00
750.26	917.00
750.51	956.00
750.76	940.00
751.01	889.00
751.26	898.00
751.51	912.00
751.77	937.00
752.02	915.00
752.27	920.00
752.52	937.00
752.77	955.00
753.02	920.00
753.27	924.00
753.52	924.00
753.77	907.00
754.02	894.00
754.27	912.00
754.52	894.00
754.78	937.00
755.03	924.00
755.28	940.00
755.53	928.00
755.78	920.00
756.03	896.00
756.28	933.00
756.53	941.00
756.78	944.00
757.03	925.00
757.28	935.00
757.53	934.00
757.79	902.00
758.04	889.00
758.29	952.00
758.54	953.00
758.79	956.00
759.04	889.00
759.29	899.00
759.54	911.00
759.79	914.00
760.04	917.00
760.29	923.00
760.54	926.00
760.79	918.00
761.04	878.00
761.29	904.00
761.55	913.00
761.80	935.00
762.05	877.00
762.30	913.00
762.55	925.00
762.80	947.00
763.05	926.00
763.30	927.00
763.55	953.00
763.80	948.00
764.05	902.00
764.30	938.00
764.55	947.00
764.80	922.00
765.05	892.00
765.30	929.00
765.55	935.00
765.80	928.00
766.05	890.00
766.30	932.00
766.56	916.00
766.81	933.00
767.06	921.00
767.31	932.00
767.56	917.00
767.81	923.00
768.06	901.00
768.31	938.00
768.56	932.00
768.81	983.00
769.06	900.00
769.31	928.00
769.56	920.00
769.81	932.00
770.06	885.00
770.31	900.00
770.56	929.00
770.81	912.00
771.06	867.00
771.31	917.00
771.56	926.00
771.81	939.00
772.06	881.00
772.31	931.00
772.56	947.00
772.81	941.00
773.06	908.00
773.31	929.00
773.56	922.00
773.81	915.00
774.06	894.00
774.31	914.00
774.56	926.00
774.81	943.00
775.06	913.00
775.31	945.00
775.56	942.00
775.81	907.00
776.06	886.00
776.31	923.00
776.56	920.00
776.82	912.00
777.07	891.00
777.32	914.00
777.57	930.00
777.82	949.00
778.07	922.00
778.32	911.00
778.57	931.00
778.82	953.00
779.07	910.00
779.32	915.00
779.57	905.00
779.82	918.00
780.07	896.00
780.32	925.00
780.56	935.00
780.81	956.00
781.06	893.00
781.31	906.00
781.56	950.00
781.81	934.00
782.06	899.00
782.31	942.00
782.56	931.00
782.81	944.00
783.06	897.00
783.31	921.00
783.56	937.00
783.81	945.00
784.06	916.00
784.31	918.00
784.56	904.00
784.81	965.00
785.06	928.00
785.31	926.00
785.56	894.00
785.81	902.00
786.06	866.00
786.31	912.00
786.56	908.00
786.81	918.00
787.06	911.00
787.31	917.00
787.56	904.00
787.81	894.00
788.06	872.00
788.31	915.00
788.56	901.00
788.81	942.00
789.06	913.00
789.31	923.00
789.56	924.00
789.81	921.00
790.06	893.00
790.31	944.00
790.56	925.00
790.80	932.00
791.05	893.00
791.30	896.00
791.55	902.00
791.80	914.00
792.05	894.00
792.30	904.00
792.55	907.00
792.80	922.00
793.05	901.00
793.30	901.00
793.55	929.00
793.80	941.00
794.05	894.00
794.30	926.00
794.55	923.00
794.80	947.00
795.05	897.00
795.30	901.00
795.54	907.00
795.79	929.00
796.04	892.00
796.29	927.00
796.54	929.00
796.79	953.00
797.04	919.00
797.29	938.00
797.54	959.00
797.79	944.00
798.04	918.00
798.29	905.00
798.54	897.00
798.79	914.00
799.04	888.00
799.29	906.00
799.53	911.00
799.78	916.00
800.03	898.00
800.28	901.00
800.53	915.00
800.78	955.00
801.03	904.00
801.28	918.00
801.53	908.00
801.78	936.00
802.03	900.00
802.28	919.00
802.52	942.00
802.77	952.00
803.02	932.00
803.27	927.00
803.52	903.00
803.77	935.00
804.02	916.00
804.27	925.00
804.52	918.00
804.77	954.00
805.02	913.00
805.27	930.00
805.51	930.00
805.76	944.00
806.01	894.00
806.26	914.00
806.51	929.00
806.76	969.00
807.01	908.00
807.26	908.00
807.51	942.00
807.76	918.00
808.00	886.00
808.25	917.00
808.50	929.00
808.75	914.00
809.00	880.00
809.25	911.00
809.50	911.00
809.75	953.00
810.00	938.00
810.24	920.00
810.49	878.00
810.74	902.00
810.99	896.00
811.24	920.00
811.49	939.00
811.74	950.00
811.99	877.00
812.24	920.00
812.48	904.00
812.73	916.00
812.98	884.00
813.23	897.00
813.48	899.00
813.73	908.00
813.98	867.00
814.23	916.00
814.47	906.00
814.72	898.00
814.97	877.00
815.22	939.00
815.47	913.00
815.72	926.00
815.97	891.00
816.22	911.00
816.46	923.00
816.71	945.00
816.96	921.00
817.21	931.00
817.46	910.00
817.71	932.00
817.96	901.00
818.20	901.00
818.45	881.00
818.70	914.00
818.95	890.00
819.20	924.00
819.45	938.00
819.70	930.00
819.94	892.00
820.19	913.00
820.44	916.00
820.69	954.00
820.94	923.00
821.19	934.00
821.44	980.00
821.68	999.00
821.93	924.00
822.18	934.00
822.43	948.00
822.68	939.00
822.93	911.00
823.17	916.00
823.42	921.00
823.67	917.00
823.92	890.00
824.17	914.00
824.42	904.00
824.67	925.00
824.91	913.00
825.16	920.00
825.41	917.00
825.66	927.00
825.91	887.00
826.16	914.00
826.40	932.00
826.65	931.00
826.90	896.00
827.15	916.00
827.40	929.00
827.65	941.00
827.89	863.00
828.14	901.00
828.39	925.00
828.64	932.00
828.89	885.00
829.13	915.00
829.38	915.00
829.63	923.00
829.88	892.00
830.13	902.00
830.38	904.00
830.62	912.00
830.87	908.00
831.12	941.00
831.37	936.00
831.62	956.00
831.86	902.00
832.11	910.00
832.36	889.00
832.61	936.00
832.86	920.00
833.10	921.00
833.35	928.00
833.60	955.00
833.85	904.00
834.10	926.00
834.35	945.00
834.59	949.00
834.84	914.00
835.09	936.00
835.34	899.00
835.59	912.00
835.83	917.00
836.08	932.00
836.33	938.00
836.58	946.00
836.83	902.00
837.07	906.00
837.32	922.00
837.57	920.00
837.82	908.00
838.06	913.00
838.31	941.00
838.56	953.00
838.81	901.00
839.06	936.00
839.30	916.00
839.55	936.00
839.80	890.00
840.05	901.00
840.30	939.00
840.54	959.00
840.79	908.00
841.04	938.00
841.29	948.00
841.53	951.00
841.78	904.00
842.03	902.00
842.28	891.00
842.53	923.00
842.77	918.00
843.02	939.00
843.27	920.00
843.52	931.00
843.76	902.00
844.01	933.00
844.26	912.00
844.51	928.00
844.75	905.00
845.00	894.00
845.25	920.00
845.50	942.00
845.75	913.00
845.99	934.00
846.24	954.00
846.49	946.00
846.74	895.00
846.98	903.00
847.23	905.00
847.48	935.00
847.73	897.00
847.97	921.00
848.22	944.00
848.47	961.00
848.72	912.00
848.96	912.00
849.21	933.00
849.46	907.00
849.71	885.00
849.95	919.00
850.20	897.00
850.45	925.00
850.70	893.00
850.94	936.00
851.19	914.00
851.44	913.00
851.69	868.00
851.93	912.00
852.18	944.00
852.43	943.00
852.68	906.00
852.92	932.00
853.17	966.00
853.42	950.00
853.66	923.00
853.91	954.00
854.16	908.00
854.41	955.00
854.65	908.00
854.90	903.00
855.15	916.00
855.40	922.00
855.64	918.00
855.89	908.00
856.14	899.00
856.39	909.00
856.63	902.00
856.88	905.00
857.13	900.00
857.37	919.00
857.62	899.00
857.87	909.00
858.12	929.00
858.36	943.00
858.61	877.00
858.86	908.00
859.10	946.00
859.35	927.00
859.60	888.00
859.85	865.00
860.09	889.00
860.34	932.00
860.59	918.00
860.83	922.00
861.08	921.00
861.33	954.00
861.58	910.00
861.82	915.00
862.07	920.00
862.32	930.00
862.56	886.00
862.81	904.00
863.06	917.00
863.30	912.00
863.55	907.00
863.80	924.00
864.05	931.00
864.29	925.00
864.54	914.00
864.79	930.00
865.03	950.00
865.28	969.00
865.53	917.00
865.77	889.00
866.02	926.00
866.27	940.00
866.51	917.00
866.76	903.00
867.01	904.00
867.26	957.00
867.50	903.00
867.75	906.00
868.00	933.00
868.24	927.00
868.49	907.00
868.74	925.00
868.98	917.00
869.23	947.00
869.48	927.00
869.72	910.00
869.97	926.00
870.22	961.00
870.46	903.00
870.71	926.00
870.96	929.00
871.20	930.00
871.45	882.00
871.70	915.00
871.94	945.00
872.19	953.00
872.44	928.00
872.68	929.00
872.93	915.00
873.18	936.00
873.42	901.00
873.67	933.00
873.92	955.00
874.16	929.00
874.41	923.00
874.66	924.00
874.90	929.00
875.15	952.00
875.40	917.00
875.64	925.00
875.89	925.00
876.14	943.00
876.38	928.00
876.63	922.00
876.88	933.00
877.12	940.00
877.37	893.00
877.62	933.00
877.86	924.00
878.11	944.00
878.36	899.00
878.60	911.00
878.85	913.00
879.09	935.00
879.34	912.00
879.59	932.00
879.83	940.00
880.08	967.00
880.33	939.00
880.57	944.00
880.82	940.00
881.07	935.00
881.31	902.00
881.56	908.00
881.80	904.00
882.05	910.00
882.30	874.00
882.54	909.00
882.79	956.00
883.04	989.00
883.28	946.00
883.53	915.00
883.77	928.00
884.02	954.00
884.27	907.00
884.51	910.00
884.76	922.00
885.01	947.00
885.25	902.00
885.50	925.00
885.74	923.00
885.99	955.00
886.24	918.00
886.48	917.00
886.73	936.00
886.98	964.00
887.22	929.00
887.47	927.00
887.71	941.00
887.96	925.00
888.21	920.00
888.45	909.00
888.70	910.00
888.94	952.00
889.19	896.00
889.44	904.00
889.68	914.00
889.93	964.00
890.17	904.00
890.42	898.00
890.67	951.00
890.91	1016.00
891.16	901.00
891.40	907.00
891.65	917.00
891.90	947.00
892.14	883.00
892.39	927.00
892.63	939.00
892.88	957.00
893.13	924.00
893.37	890.00
893.62	908.00
893.86	935.00
894.11	909.00
894.36	900.00
894.60	909.00
894.85	922.00
895.09	904.00
895.34	946.00
895.59	912.00
895.83	907.00
896.08	880.00
896.32	908.00
896.57	932.00
896.81	933.00
897.06	910.00
897.31	923.00
897.55	947.00
897.80	932.00
898.04	891.00
898.29	878.00
898.53	924.00
898.78	948.00
899.03	920.00
899.27	903.00
899.52	932.00
899.76	954.00
900.01	899.00
900.25	924.00
900.50	934.00
900.75	946.00
900.99	912.00
901.24	975.00
901.48	918.00
901.73	916.00
901.97	891.00
902.22	942.00
902.47	955.00
902.71	936.00
902.96	894.00
903.20	913.00
903.45	957.00
903.69	956.00
903.94	921.00
904.18	894.00
904.43	904.00
904.68	917.00
904.92	880.00
905.17	914.00
905.41	931.00
905.66	943.00
905.90	931.00
906.15	935.00
906.39	935.00
906.64	925.00
906.88	878.00
907.13	896.00
907.38	940.00
907.62	961.00
907.87	905.00
908.11	918.00
908.36	902.00
908.60	929.00
908.85	856.00
909.09	908.00
909.34	921.00
909.58	921.00
909.83	881.00
910.07	901.00
910.32	955.00
910.56	958.00
910.81	901.00
911.06	937.00
911.30	940.00
911.55	910.00
911.79	887.00
912.04	906.00
912.28	894.00
912.53	941.00
912.77	920.00
913.02	916.00
913.26	926.00
913.51	918.00
913.75	923.00
914.00	923.00
914.24	931.00
914.49	944.00
914.73	883.00
914.98	932.00
915.22	950.00
915.47	929.00
915.71	897.00
915.96	919.00
916.20	925.00
916.45	907.00
916.69	894.00
916.94	916.00
917.18	928.00
917.43	939.00
917.67	904.00
917.92	889.00
918.16	947.00
918.41	945.00
918.65	890.00
918.90	888.00
919.14	882.00
919.39	920.00
919.63	890.00
919.88	899.00
920.12	941.00
920.37	936.00
920.61	889.00
920.86	909.00
921.10	950.00
921.35	910.00
921.59	890.00
921.84	919.00
922.08	948.00
922.33	955.00
922.57	883.00
922.82	877.00
923.06	902.00
923.31	941.00
923.55	880.00
923.80	885.00
924.04	891.00
924.29	926.00
924.53	896.00
924.78	896.00
925.02	895.00
925.27	918.00
925.51	913.00
925.76	939.00
926.00	937.00
926.25	928.00
926.49	891.00
926.73	929.00
926.98	933.00
927.22	954.00
927.47	920.00
927.71	914.00
927.96	931.00
928.20	940.00
928.45	918.00
928.69	962.00
928.94	938.00
929.18	924.00
929.43	933.00
929.67	939.00
929.91	923.00
930.16	933.00
930.40	888.00
930.65	882.00
930.89	917.00
931.14	968.00
931.38	928.00
931.63	924.00
931.87	939.00
932.12	941.00
932.36	874.00
932.60	899.00
932.85	941.00
933.09	929.00
933.34	883.00
933.58	941.00
933.83	917.00
934.07	938.00
934.32	914.00
934.56	933.00
934.80	974.00
935.05	978.00
935.29	927.00
935.54	941.00
935.78	946.00
936.03	934.00
936.27	871.00
936.52	896.00
936.76	923.00
937.00	925.00
937.25	888.00
937.49	920.00
937.74	936.00
937.98	934.00
938.23	886.00
938.47	902.00
938.71	911.00
938.96	919.00
939.20	893.00
939.45	900.00
939.69	916.00
939.94	934.00
940.18	881.00
940.42	907.00
940.67	919.00
940.91	905.00
941.16	899.00
941.40	900.00
941.64	908.00
941.89	926.00
942.13	901.00
942.38	926.00
942.62	1005.00
942.87	978.00
943.11	945.00
943.35	899.00
943.60	930.00
943.84	964.00
944.09	925.00
944.33	936.00
944.57	954.00
944.82	917.00
945.06	892.00
945.31	913.00
945.55	901.00
945.79	928.00
946.04	916.00
946.28	901.00
946.53	921.00
946.77	937.00
947.01	873.00
947.26	928.00
947.50	913.00
947.75	938.00
947.99	931.00
948.23	933.00
948.48	921.00
948.72	932.00
948.97	905.00
949.21	912.00
949.45	929.00
949.70	952.00
949.94	921.00
950.18	926.00
950.43	926.00
950.67	939.00
950.92	904.00
951.16	913.00
951.40	913.00
951.65	923.00
951.89	912.00
952.13	909.00
952.38	938.00
952.62	937.00
952.87	886.00
953.11	916.00
953.35	961.00
953.60	956.00
953.84	853.00
954.08	876.00
954.33	917.00
954.57	916.00
954.82	903.00
955.06	904.00
955.30	914.00
955.55	913.00
955.79	913.00
956.03	918.00
956.28	915.00
956.52	913.00
956.76	904.00
957.01	922.00
957.25	917.00
957.50	945.00
957.74	906.00
957.98	914.00
958.23	938.00
958.47	936.00
958.71	905.00
958.96	926.00
959.20	958.00
959.44	933.00
959.69	907.00
959.93	926.00
960.17	921.00
960.42	926.00
960.66	927.00
960.90	920.00
961.15	913.00
961.39	928.00
961.64	898.00
961.88	896.00
962.12	940.00
962.37	941.00
962.61	909.00
962.85	905.00
963.10	932.00
963.34	939.00
963.58	901.00
963.83	923.00
964.07	911.00
964.31	939.00
964.56	923.00
964.80	901.00
965.04	912.00
965.29	917.00
965.53	889.00
965.77	911.00
966.02	882.00
966.26	912.00
966.50	889.00
966.74	932.00
966.99	960.00
967.23	944.00
967.47	913.00
967.72	919.00
967.96	923.00
968.20	928.00
968.45	894.00
968.69	904.00
968.93	908.00
969.18	917.00
969.42	921.00
969.66	932.00
969.91	920.00
970.15	956.00
970.39	897.00
970.64	931.00
970.88	932.00
971.12	920.00
971.36	905.00
971.61	913.00
971.85	920.00
972.09	918.00
972.34	905.00
972.58	917.00
972.82	935.00
973.07	940.00
973.31	883.00
973.55	911.00
973.79	944.00
974.04	975.00
974.28	922.00
974.52	918.00
974.77	914.00
975.01	952.00
975.25	905.00
975.50	911.00
975.74	955.00
975.98	930.00
976.22	912.00
976.47	898.00
976.71	910.00
976.95	937.00
977.20	924.00
977.44	919.00
977.68	921.00
977.92	936.00
978.17	904.00
978.41	910.00
978.65	926.00
978.90	908.00
979.14	910.00
979.38	914.00
979.62	919.00
979.87	926.00
980.11	887.00
980.35	916.00
980.59	920.00
980.84	923.00
981.08	905.00
981.32	906.00
981.57	941.00
981.81	938.00
982.05	906.00
982.29	891.00
982.54	913.00
982.78	919.00
983.02	900.00
983.26	926.00
983.51	954.00
983.75	953.00
983.99	892.00
984.23	913.00
984.48	920.00
984.72	951.00
984.96	896.00
985.20	902.00
985.45	959.00
985.69	923.00
985.93	898.00
986.17	939.00
986.42	923.00
986.66	920.00
986.90	872.00
987.14	885.00
987.39	915.00
987.63	913.00
987.87	902.00
988.11	895.00
988.36	930.00
988.60	929.00
988.84	923.00
989.08	886.00
989.33	919.00
989.57	932.00
989.81	880.00
990.05	885.00
990.30	925.00
990.54	901.00
990.78	894.00
991.02	903.00
991.27	921.00
991.51	920.00
991.75	888.00
991.99	935.00
992.23	904.00
992.48	905.00
992.72	884.00
992.96	890.00
993.20	904.00
993.45	924.00
993.69	927.00
993.93	904.00
994.17	948.00
994.41	951.00
994.66	891.00
994.90	919.00
995.14	944.00
995.38	925.00
995.63	890.00
995.87	900.00
996.11	954.00
996.35	936.00
996.59	883.00
996.84	884.00
997.08	919.00
997.32	921.00
997.56	897.00
997.80	879.00
998.05	908.00
998.29	899.00
998.53	892.00
998.77	917.00
999.01	933.00
999.26	950.00
999.50	908.00
999.74	903.00
999.98	942.00
1000.22	933.00
1000.47	869.00
1000.71	890.00
1000.95	951.00
1001.19	941.00
1001.43	914.00
1001.68	913.00
1001.92	916.00
1002.16	904.00
1002.40	869.00
1002.64	896.00
1002.89	910.00
1003.13	919.00
1003.37	904.00
1003.61	897.00
1003.85	917.00
1004.10	935.00
1004.34	912.00
1004.58	893.00
1004.82	925.00
1005.06	927.00
1005.30	907.00
1005.55	903.00
1005.79	934.00
1006.03	925.00
1006.27	915.00
1006.51	906.00
1006.76	915.00
1007.00	939.00
1007.24	913.00
1007.48	924.00
1007.72	951.00
1007.96	944.00
1008.21	919.00
1008.45	914.00
1008.69	937.00
1008.93	952.00
1009.17	896.00
1009.41	934.00
1009.66	952.00
1009.90	930.00
1010.14	890.00
1010.38	921.00
1010.62	940.00
1010.86	969.00
1011.10	928.00
1011.35	912.00
1011.59	915.00
1011.83	899.00
1012.07	883.00
1012.31	932.00
1012.55	920.00
1012.80	945.00
1013.04	926.00
1013.28	926.00
1013.52	928.00
1013.76	932.00
1014.00	886.00
1014.24	911.00
1014.49	932.00
1014.73	957.00
1014.97	929.00
1015.21	919.00
1015.45	939.00
1015.69	910.00
1015.93	873.00
1016.18	885.00
1016.42	944.00
1016.66	953.00
1016.90	889.00
1017.14	886.00
1017.38	897.00
1017.62	920.00
1017.87	915.00
1018.11	915.00
1018.35	929.00
1018.59	936.00
1018.83	891.00
1019.07	899.00
1019.31	932.00
1019.55	948.00
1019.80	901.00
1020.04	920.00
1020.28	922.00
1020.52	929.00
1020.76	900.00
1021.00	880.00
1021.24	898.00
1021.48	923.00
1021.73	901.00
1021.97	914.00
1022.21	941.00
1022.45	935.00
1022.69	911.00
1022.93	903.00
1023.17	922.00
1023.41	958.00
1023.65	913.00
1023.90	925.00
1024.14	937.00
1024.38	915.00
1024.62	896.00
1024.86	923.00
1025.10	922.00
1025.34	917.00
1025.58	878.00
1025.82	903.00
1026.07	930.00
1026.31	923.00
1026.55	898.00
1026.79	900.00
1027.03	935.00
1027.27	927.00
1027.51	875.00
1027.75	857.00
1027.99	892.00
1028.23	961.00
1028.47	918.00
1028.72	897.00
1028.96	936.00
1029.20	925.00
1029.44	925.00
1029.68	904.00
1029.92	916.00
1030.16	929.00
1030.40	875.00
1030.64	896.00
1030.88	923.00
1031.12	908.00
1031.37	884.00
1031.61	909.00
1031.85	956.00
1032.09	950.00
1032.33	906.00
1032.57	954.00
1032.81	925.00
1033.05	956.00
1033.29	914.00
1033.53	915.00
1033.77	980.00
1034.01	955.00
1034.25	906.00
1034.50	908.00
1034.74	912.00
1034.98	949.00
1035.22	912.00
1035.46	904.00
1035.70	945.00
1035.94	943.00
1036.18	923.00
1036.42	924.00
1036.66	900.00
1036.90	924.00
1037.14	877.00
1037.38	898.00
1037.62	938.00
1037.86	917.00
1038.10	890.00
1038.35	914.00
1038.59	923.00
1038.83	951.00
1039.07	920.00
1039.31	938.00
1039.55	906.00
1039.79	931.00
1040.03	885.00
1040.27	882.00
1040.51	920.00
1040.75	965.00
1040.99	917.00
1041.23	925.00
1041.47	926.00
1041.71	936.00
1041.95	893.00
1042.19	902.00
1042.43	950.00
1042.67	974.00
1042.91	923.00
1043.15	889.00
1043.39	940.00
1043.64	936.00
1043.88	903.00
1044.12	931.00
1044.36	985.00
1044.60	950.00
1044.84	923.00
1045.08	925.00
1045.32	930.00
1045.56	950.00
1045.80	923.00
1046.04	905.00
1046.28	948.00
1046.52	941.00
1046.76	894.00
1047.00	888.00
1047.24	936.00
1047.48	918.00
1047.72	908.00
1047.96	912.00
1048.20	943.00
1048.44	932.00
1048.68	889.00
1048.92	903.00
1049.16	933.00
1049.40	941.00
1049.64	918.00
1049.88	927.00
1050.12	948.00
1050.36	949.00
1050.60	924.00
1050.84	912.00
1051.08	921.00
1051.32	922.00
1051.56	921.00
1051.80	914.00
1052.04	909.00
1052.28	953.00
1052.52	893.00
1052.76	896.00
1053.00	931.00
1053.24	949.00
1053.48	881.00
1053.72	898.00
1053.96	934.00
1054.20	936.00
1054.44	919.00
1054.68	932.00
1054.92	944.00
1055.16	908.00
1055.40	887.00
1055.64	917.00
1055.88	950.00
1056.12	944.00
1056.36	877.00
1056.60	890.00
1056.84	960.00
1057.08	926.00
1057.32	914.00
1057.56	912.00
1057.80	926.00
1058.04	948.00
1058.28	902.00
1058.52	902.00
1058.76	936.00
1059.00	953.00
1059.24	892.00
1059.48	900.00
1059.72	939.00
1059.96	927.00
1060.20	923.00
1060.44	938.00
1060.68	957.00
1060.92	933.00
1061.16	881.00
1061.40	904.00
1061.64	932.00
1061.88	932.00
1062.11	904.00
1062.35	898.00
1062.59	913.00
1062.83	947.00
1063.07	897.00
1063.31	888.00
1063.55	905.00
1063.79	940.00
1064.03	921.00
1064.27	904.00
1064.51	925.00
1064.75	935.00
1064.99	910.00
1065.23	906.00
1065.47	918.00
1065.71	952.00
1065.95	896.00
1066.19	920.00
1066.43	949.00
1066.67	948.00
1066.91	926.00
1067.15	903.00
1067.38	910.00
1067.62	922.00
1067.86	892.00
1068.10	946.00
1068.34	971.00
1068.58	949.00
1068.82	894.00
1069.06	862.00
1069.30	929.00
1069.54	948.00
1069.78	937.00
1070.02	917.00
1070.26	941.00
1070.50	950.00
1070.74	909.00
1070.98	925.00
1071.21	940.00
1071.45	926.00
1071.69	894.00
1071.93	909.00
1072.17	947.00
1072.41	939.00
1072.65	924.00
1072.89	918.00
1073.13	920.00
1073.37	915.00
1073.61	884.00
1073.85	926.00
1074.09	903.00
1074.32	893.00
1074.56	898.00
1074.80	979.00
1075.04	1195.00
1075.28	1032.00
1075.52	918.00
1075.76	921.00
1076.00	941.00
1076.24	943.00
1076.48	922.00
1076.72	940.00
1076.96	954.00
1077.19	937.00
1077.43	885.00
1077.67	933.00
1077.91	932.00
1078.15	907.00
1078.39	910.00
1078.63	900.00
1078.87	917.00
1079.11	932.00
1079.35	899.00
1079.58	900.00
1079.82	920.00
1080.06	923.00
1080.30	877.00
1080.54	926.00
1080.78	951.00
1081.02	926.00
1081.26	921.00
1081.50	927.00
1081.74	924.00
1081.97	941.00
1082.21	908.00
1082.45	948.00
1082.69	928.00
1082.93	915.00
1083.17	919.00
1083.41	918.00
1083.65	965.00
1083.88	974.00
1084.12	928.00
1084.36	925.00
1084.60	942.00
1084.84	923.00
1085.08	877.00
1085.32	900.00
1085.56	948.00
1085.80	933.00
1086.03	896.00
1086.27	894.00
1086.51	922.00
1086.75	956.00
1086.99	910.00
1087.23	880.00
1087.47	915.00
1087.70	923.00
1087.94	924.00
1088.18	938.00
1088.42	972.00
1088.66	948.00
1088.90	897.00
1089.14	918.00
1089.38	918.00
1089.61	934.00
1089.85	912.00
1090.09	885.00
1090.33	961.00
1090.57	968.00
1090.81	883.00
1091.05	902.00
1091.28	924.00
1091.52	940.00
1091.76	894.00
1092.00	904.00
1092.24	931.00
1092.48	950.00
1092.71	893.00
1092.95	937.00
1093.19	939.00
1093.43	942.00
1093.67	902.00
1093.91	924.00
1094.15	934.00
1094.38	944.00
1094.62	893.00
1094.86	897.00
1095.10	912.00
1095.34	933.00
1095.58	894.00
1095.81	914.00
1096.05	945.00
1096.29	951.00
1096.53	890.00
1096.77	912.00
1097.01	908.00
1097.24	944.00
1097.48	903.00
1097.72	930.00
1097.96	942.00
1098.20	944.00
1098.44	893.00
1098.67	878.00
1098.91	937.00
1099.15	931.00
1099.39	892.00
1099.63	921.00
1099.86	941.00
1100.10	915.00
1100.34	903.00
1100.58	898.00
1100.82	929.00
1101.06	928.00
1101.29	894.00
1101.53	901.00
1101.77	917.00
1102.01	902.00
1102.25	908.00
1102.48	929.00
1102.72	973.00
1102.96	928.00
1103.20	855.00
1103.44	909.00
1103.67	929.00
1103.91	937.00
1104.15	889.00
1104.39	902.00
1104.63	929.00
1104.86	914.00
1105.10	897.00
1105.34	928.00
1105.58	923.00
1105.82	926.00
1106.05	914.00
1106.29	918.00
1106.53	929.00
1106.77	961.00
1107.01	901.00
1107.24	937.00
1107.48	990.00
1107.72	941.00
1107.96	874.00
1108.20	892.00
1108.43	925.00
1108.67	912.00
1108.91	906.00
1109.15	906.00
1109.39	929.00
1109.62	927.00
1109.86	884.00
1110.10	908.00
1110.34	959.00
1110.57	964.00
1110.81	915.00
1111.05	924.00
1111.29	964.00
1111.53	970.00
1111.76	904.00
1112.00	944.00
1112.24	974.00
1112.48	952.00
1112.71	902.00
1112.95	913.00
1113.19	960.00
1113.43	922.00
1113.66	870.00
1113.90	923.00
1114.14	931.00
1114.38	941.00
1114.62	889.00
1114.85	932.00
1115.09	949.00
1115.33	996.00
1115.57	926.00
1115.80	898.00
1116.04	930.00
1116.28	936.00
1116.52	909.00
1116.75	905.00
1116.99	945.00
1117.23	956.00
1117.47	932.00
1117.70	958.00
1117.94	993.00
1118.18	936.00
1118.42	908.00
1118.65	932.00
1118.89	929.00
1119.13	920.00
1119.37	900.00
1119.60	922.00
1119.84	944.00
>>>>>End Processed Spectral Data<<<<<
