SpectraSuite Data File
++++++++++++++++++++++++++++++++++++
Date: Fri Nov 29 15:17:55 CET 2024
User: student
Dark Spectrum Present: No
Reference Spectrum Present: No
Number of Sampled Component Spectra: 1
Spectrometers: HR4C155
Integration Time (usec): 100000 (HR4C155)
Spectra Averaged: 1 (HR4C155)
Boxcar Smoothing: 0 (HR4C155)
Correct for Electrical Dark: No (HR4C155)
Strobe/Lamp Enabled: No (HR4C155)
Correct for Detector Non-linearity: No (HR4C155)
Correct for Stray Light: No (HR4C155)
Number of Pixels in Processed Spectrum: 3648
>>>>>Begin Processed Spectral Data<<<<<
195.39	753.00
195.66	753.00
195.93	753.00
196.20	710.00
196.46	746.00
196.73	882.00
197.00	898.00
197.27	883.00
197.54	901.00
197.81	893.00
198.08	893.00
198.35	926.00
198.61	940.00
198.88	903.00
199.15	909.00
199.42	924.00
199.69	961.00
199.96	915.00
200.23	910.00
200.49	919.00
200.76	948.00
201.03	930.00
201.30	917.00
201.57	975.00
201.84	988.00
202.11	944.00
202.38	953.00
202.64	958.00
202.91	993.00
203.18	919.00
203.45	989.00
203.72	1056.00
203.99	986.00
204.25	966.00
204.52	942.00
204.79	971.00
205.06	980.00
205.33	912.00
205.60	929.00
205.87	989.00
206.13	986.00
206.40	964.00
206.67	941.00
206.94	983.00
207.21	974.00
207.48	945.00
207.75	948.00
208.01	984.00
208.28	981.00
208.55	939.00
208.82	946.00
209.09	937.00
209.36	974.00
209.62	962.00
209.89	984.00
210.16	989.00
210.43	1013.00
210.70	944.00
210.97	951.00
211.23	968.00
211.50	995.00
211.77	966.00
212.04	961.00
212.31	983.00
212.58	997.00
212.84	940.00
213.11	949.00
213.38	921.00
213.65	970.00
213.92	948.00
214.18	950.00
214.45	1023.00
214.72	1003.00
214.99	926.00
215.26	956.00
215.53	946.00
215.79	977.00
216.06	967.00
216.33	971.00
216.60	947.00
216.87	992.00
217.13	907.00
217.40	931.00
217.67	979.00
217.94	1009.00
218.21	949.00
218.48	974.00
218.74	1037.00
219.01	990.00
219.28	912.00
219.55	923.00
219.82	967.00
220.08	984.00
220.35	933.00
220.62	947.00
220.89	991.00
221.16	1015.00
221.42	964.00
221.69	969.00
221.96	977.00
222.23	989.00
222.50	974.00
222.76	965.00
223.03	944.00
223.30	950.00
223.57	927.00
223.84	925.00
224.10	936.00
224.37	963.00
224.64	929.00
224.91	950.00
225.18	989.00
225.44	1000.00
225.71	950.00
225.98	976.00
226.25	1000.00
226.51	996.00
226.78	927.00
227.05	928.00
227.32	959.00
227.59	987.00
227.85	968.00
228.12	949.00
228.39	992.00
228.66	1003.00
228.92	987.00
229.19	948.00
229.46	999.00
229.73	955.00
230.00	932.00
230.26	964.00
230.53	1004.00
230.80	982.00
231.07	922.00
231.33	920.00
231.60	966.00
231.87	987.00
232.14	951.00
232.41	990.00
232.67	986.00
232.94	983.00
233.21	929.00
233.48	961.00
233.74	982.00
234.01	966.00
234.28	914.00
234.55	956.00
234.81	969.00
235.08	997.00
235.35	936.00
235.62	944.00
235.88	965.00
236.15	977.00
236.42	954.00
236.69	967.00
236.95	982.00
237.22	962.00
237.49	938.00
237.76	936.00
238.02	997.00
238.29	1001.00
238.56	955.00
238.83	944.00
239.09	957.00
239.36	991.00
239.63	935.00
239.90	941.00
240.16	999.00
240.43	1007.00
240.70	930.00
240.97	939.00
241.23	958.00
241.50	989.00
241.77	953.00
242.04	953.00
242.30	921.00
242.57	935.00
242.84	911.00
243.11	955.00
243.37	934.00
243.64	1001.00
243.91	948.00
244.18	944.00
244.44	942.00
244.71	942.00
244.98	947.00
245.24	951.00
245.51	976.00
245.78	989.00
246.05	932.00
246.31	950.00
246.58	980.00
246.85	965.00
247.12	953.00
247.38	998.00
247.65	986.00
247.92	985.00
248.18	930.00
248.45	945.00
248.72	972.00
248.99	972.00
249.25	939.00
249.52	943.00
249.79	978.00
250.05	976.00
250.32	948.00
250.59	947.00
250.86	948.00
251.12	958.00
251.39	919.00
251.66	944.00
251.92	978.00
252.19	984.00
252.46	945.00
252.73	972.00
252.99	976.00
253.26	992.00
253.53	927.00
253.79	950.00
254.06	953.00
254.33	962.00
254.60	910.00
254.86	953.00
255.13	971.00
255.40	984.00
255.66	936.00
255.93	964.00
256.20	980.00
256.46	1004.00
256.73	959.00
257.00	956.00
257.26	978.00
257.53	980.00
257.80	964.00
258.07	965.00
258.33	1008.00
258.60	997.00
258.87	930.00
259.13	968.00
259.40	957.00
259.67	993.00
259.93	934.00
260.20	969.00
260.47	989.00
260.73	949.00
261.00	936.00
261.27	959.00
261.53	991.00
261.80	973.00
262.07	922.00
262.34	947.00
262.60	920.00
262.87	959.00
263.14	927.00
263.40	961.00
263.67	957.00
263.94	933.00
264.20	931.00
264.47	938.00
264.74	955.00
265.00	945.00
265.27	914.00
265.54	936.00
265.80	979.00
266.07	993.00
266.34	926.00
266.60	952.00
266.87	970.00
267.14	987.00
267.40	931.00
267.67	919.00
267.94	968.00
268.20	958.00
268.47	929.00
268.74	930.00
269.00	964.00
269.27	951.00
269.54	900.00
269.80	931.00
270.07	983.00
270.33	958.00
270.60	941.00
270.87	954.00
271.13	954.00
271.40	961.00
271.67	905.00
271.93	905.00
272.20	952.00
272.47	956.00
272.73	900.00
273.00	938.00
273.27	954.00
273.53	971.00
273.80	933.00
274.07	926.00
274.33	938.00
274.60	967.00
274.86	935.00
275.13	948.00
275.40	960.00
275.66	982.00
275.93	937.00
276.20	931.00
276.46	939.00
276.73	933.00
277.00	958.00
277.26	958.00
277.53	969.00
277.79	964.00
278.06	927.00
278.33	985.00
278.59	972.00
278.86	945.00
279.13	926.00
279.39	947.00
279.66	992.00
279.93	1004.00
280.19	937.00
280.46	940.00
280.72	940.00
280.99	977.00
281.26	933.00
281.52	930.00
281.79	967.00
282.05	967.00
282.32	945.00
282.59	949.00
282.85	1002.00
283.12	990.00
283.39	947.00
283.65	959.00
283.92	971.00
284.18	994.00
284.45	952.00
284.72	963.00
284.98	959.00
285.25	948.00
285.51	964.00
285.78	948.00
286.05	948.00
286.31	951.00
286.58	909.00
286.84	913.00
287.11	941.00
287.38	973.00
287.64	955.00
287.91	918.00
288.17	969.00
288.44	957.00
288.71	890.00
288.97	948.00
289.24	998.00
289.50	949.00
289.77	956.00
290.04	928.00
290.30	921.00
290.57	970.00
290.83	915.00
291.10	926.00
291.37	958.00
291.63	940.00
291.90	948.00
292.16	955.00
292.43	970.00
292.70	942.00
292.96	911.00
293.23	930.00
293.49	936.00
293.76	968.00
294.02	926.00
294.29	924.00
294.56	962.00
294.82	973.00
295.09	937.00
295.35	932.00
295.62	981.00
295.89	980.00
296.15	920.00
296.42	917.00
296.68	939.00
296.95	945.00
297.21	946.00
297.48	934.00
297.75	957.00
298.01	1013.00
298.28	954.00
298.54	952.00
298.81	956.00
299.07	980.00
299.34	922.00
299.61	962.00
299.87	989.00
300.14	963.00
300.40	972.00
300.67	962.00
300.93	964.00
301.20	1000.00
301.46	944.00
301.73	941.00
302.00	977.00
302.26	961.00
302.53	961.00
302.79	940.00
303.06	971.00
303.32	995.00
303.59	930.00
303.85	912.00
304.12	931.00
304.39	969.00
304.65	933.00
304.92	937.00
305.18	953.00
305.45	966.00
305.71	940.00
305.98	963.00
306.24	964.00
306.51	964.00
306.77	953.00
307.04	947.00
307.31	993.00
307.57	998.00
307.84	926.00
308.10	943.00
308.37	935.00
308.63	961.00
308.90	939.00
309.16	946.00
309.43	985.00
309.69	952.00
309.96	949.00
310.22	933.00
310.49	955.00
310.76	962.00
311.02	899.00
311.29	930.00
311.55	941.00
311.82	959.00
312.08	957.00
312.35	960.00
312.61	974.00
312.88	971.00
313.14	934.00
313.41	936.00
313.67	936.00
313.94	968.00
314.20	948.00
314.47	947.00
314.73	932.00
315.00	934.00
315.26	911.00
315.53	954.00
315.79	966.00
316.06	971.00
316.32	937.00
316.59	964.00
316.85	956.00
317.12	971.00
317.39	909.00
317.65	935.00
317.92	934.00
318.18	958.00
318.45	935.00
318.71	979.00
318.98	998.00
319.24	955.00
319.51	945.00
319.77	942.00
320.04	968.00
320.30	963.00
320.57	929.00
320.83	927.00
321.10	935.00
321.36	948.00
321.63	940.00
321.89	936.00
322.16	985.00
322.42	976.00
322.69	911.00
322.95	931.00
323.22	967.00
323.48	963.00
323.75	920.00
324.01	947.00
324.28	947.00
324.54	958.00
324.80	957.00
325.07	965.00
325.33	960.00
325.60	953.00
325.86	923.00
326.13	938.00
326.39	942.00
326.66	927.00
326.92	900.00
327.19	932.00
327.45	996.00
327.72	1003.00
327.98	942.00
328.25	936.00
328.51	952.00
328.78	965.00
329.04	923.00
329.31	945.00
329.57	953.00
329.84	944.00
330.10	918.00
330.37	937.00
330.63	979.00
330.89	996.00
331.16	935.00
331.42	952.00
331.69	990.00
331.95	956.00
332.22	944.00
332.48	984.00
332.75	971.00
333.01	949.00
333.28	932.00
333.54	944.00
333.81	953.00
334.07	973.00
334.34	949.00
334.60	956.00
334.86	1009.00
335.13	1016.00
335.39	943.00
335.66	921.00
335.92	968.00
336.19	983.00
336.45	898.00
336.72	927.00
336.98	933.00
337.24	948.00
337.51	915.00
337.77	945.00
338.04	959.00
338.30	966.00
338.57	922.00
338.83	936.00
339.10	967.00
339.36	973.00
339.63	945.00
339.89	916.00
340.15	949.00
340.42	978.00
340.68	967.00
340.95	960.00
341.21	972.00
341.48	968.00
341.74	914.00
342.00	917.00
342.27	956.00
342.53	971.00
342.80	938.00
343.06	953.00
343.33	966.00
343.59	972.00
343.85	929.00
344.12	938.00
344.38	1006.00
344.65	984.00
344.91	928.00
345.18	919.00
345.44	948.00
345.70	939.00
345.97	899.00
346.23	927.00
346.50	976.00
346.76	961.00
347.03	948.00
347.29	939.00
347.55	934.00
347.82	925.00
348.08	884.00
348.35	924.00
348.61	1011.00
348.87	980.00
349.14	918.00
349.40	922.00
349.67	977.00
349.93	949.00
350.20	937.00
350.46	953.00
350.72	985.00
350.99	962.00
351.25	948.00
351.52	919.00
351.78	935.00
352.04	949.00
352.31	941.00
352.57	932.00
352.84	934.00
353.10	962.00
353.36	949.00
353.63	945.00
353.89	950.00
354.16	972.00
354.42	940.00
354.68	952.00
354.95	991.00
355.21	976.00
355.48	912.00
355.74	942.00
356.00	985.00
356.27	998.00
356.53	922.00
356.80	932.00
357.06	969.00
357.32	990.00
357.59	969.00
357.85	958.00
358.11	992.00
358.38	979.00
358.64	930.00
358.91	938.00
359.17	944.00
359.43	986.00
359.70	962.00
359.96	956.00
360.22	976.00
360.49	953.00
360.75	935.00
361.02	926.00
361.28	936.00
361.54	963.00
361.81	915.00
362.07	931.00
362.33	950.00
362.60	935.00
362.86	906.00
363.13	944.00
363.39	979.00
363.65	972.00
363.92	899.00
364.18	908.00
364.44	959.00
364.71	972.00
364.97	934.00
365.24	939.00
365.50	974.00
365.76	979.00
366.03	945.00
366.29	944.00
366.55	973.00
366.82	928.00
367.08	902.00
367.34	945.00
367.61	966.00
367.87	963.00
368.13	947.00
368.40	924.00
368.66	978.00
368.93	971.00
369.19	901.00
369.45	911.00
369.72	952.00
369.98	942.00
370.24	909.00
370.51	927.00
370.77	961.00
371.03	952.00
371.30	932.00
371.56	962.00
371.82	985.00
372.09	961.00
372.35	948.00
372.61	962.00
372.88	952.00
373.14	967.00
373.40	941.00
373.67	931.00
373.93	967.00
374.19	982.00
374.46	917.00
374.72	915.00
374.98	944.00
375.25	970.00
375.51	952.00
375.77	974.00
376.04	984.00
376.30	984.00
376.56	931.00
376.83	937.00
377.09	961.00
377.35	967.00
377.62	922.00
377.88	917.00
378.14	932.00
378.41	937.00
378.67	911.00
378.93	920.00
379.20	959.00
379.46	937.00
379.72	926.00
379.99	921.00
380.25	921.00
380.51	918.00
380.77	909.00
381.04	935.00
381.30	970.00
381.56	993.00
381.83	953.00
382.09	930.00
382.35	949.00
382.62	965.00
382.88	953.00
383.14	950.00
383.41	930.00
383.67	944.00
383.93	932.00
384.20	921.00
384.46	958.00
384.72	977.00
384.98	925.00
385.25	951.00
385.51	958.00
385.77	945.00
386.04	921.00
386.30	904.00
386.56	952.00
386.82	1000.00
387.09	933.00
387.35	969.00
387.61	1034.00
387.88	971.00
388.14	944.00
388.40	942.00
388.67	957.00
388.93	945.00
389.19	930.00
389.45	919.00
389.72	933.00
389.98	980.00
390.24	948.00
390.51	922.00
390.77	958.00
391.03	991.00
391.29	922.00
391.56	940.00
391.82	966.00
392.08	1008.00
392.35	931.00
392.61	929.00
392.87	965.00
393.13	980.00
393.40	934.00
393.66	931.00
393.92	954.00
394.18	978.00
394.45	919.00
394.71	938.00
394.97	948.00
395.24	925.00
395.50	912.00
395.76	943.00
396.02	957.00
396.29	954.00
396.55	909.00
396.81	882.00
397.07	945.00
397.34	930.00
397.60	905.00
397.86	901.00
398.12	938.00
398.39	964.00
398.65	906.00
398.91	912.00
399.17	948.00
399.44	921.00
399.70	876.00
399.96	921.00
400.22	941.00
400.49	978.00
400.75	939.00
401.01	921.00
401.27	934.00
401.54	968.00
401.80	934.00
402.06	935.00
402.32	960.00
402.59	953.00
402.85	933.00
403.11	940.00
403.37	920.00
403.64	967.00
403.90	926.00
404.16	935.00
404.42	946.00
404.69	922.00
404.95	924.00
405.21	907.00
405.47	939.00
405.74	968.00
406.00	910.00
406.26	922.00
406.52	965.00
406.79	977.00
407.05	914.00
407.31	929.00
407.57	942.00
407.83	953.00
408.10	912.00
408.36	930.00
408.62	953.00
408.88	945.00
409.15	921.00
409.41	883.00
409.67	923.00
409.93	966.00
410.20	944.00
410.46	932.00
410.72	931.00
410.98	949.00
411.24	920.00
411.51	934.00
411.77	948.00
412.03	951.00
412.29	937.00
412.55	954.00
412.82	947.00
413.08	965.00
413.34	949.00
413.60	936.00
413.87	964.00
414.13	980.00
414.39	923.00
414.65	940.00
414.91	952.00
415.18	926.00
415.44	903.00
415.70	908.00
415.96	925.00
416.22	939.00
416.49	912.00
416.75	928.00
417.01	949.00
417.27	956.00
417.53	934.00
417.80	938.00
418.06	968.00
418.32	968.00
418.58	914.00
418.84	914.00
419.11	950.00
419.37	964.00
419.63	924.00
419.89	923.00
420.15	958.00
420.42	947.00
420.68	893.00
420.94	924.00
421.20	942.00
421.46	958.00
421.72	950.00
421.99	946.00
422.25	943.00
422.51	966.00
422.77	939.00
423.03	960.00
423.30	958.00
423.56	964.00
423.82	964.00
424.08	952.00
424.34	954.00
424.60	954.00
424.87	931.00
425.13	912.00
425.39	915.00
425.65	941.00
425.91	931.00
426.18	965.00
426.44	966.00
426.70	939.00
426.96	894.00
427.22	885.00
427.48	917.00
427.75	933.00
428.01	896.00
428.27	940.00
428.53	968.00
428.79	934.00
429.05	910.00
429.32	941.00
429.58	980.00
429.84	939.00
430.10	931.00
430.36	940.00
430.62	978.00
430.88	959.00
431.15	927.00
431.41	952.00
431.67	952.00
431.93	936.00
432.19	897.00
432.45	937.00
432.72	944.00
432.98	950.00
433.24	949.00
433.50	1035.00
433.76	951.00
434.02	920.00
434.28	915.00
434.55	940.00
434.81	956.00
435.07	956.00
435.33	891.00
435.59	925.00
435.85	933.00
436.11	966.00
436.38	910.00
436.64	914.00
436.90	938.00
437.16	934.00
437.42	908.00
437.68	924.00
437.94	949.00
438.21	965.00
438.47	961.00
438.73	953.00
438.99	944.00
439.25	954.00
439.51	917.00
439.77	937.00
440.03	957.00
440.30	979.00
440.56	931.00
440.82	962.00
441.08	973.00
441.34	954.00
441.60	912.00
441.86	937.00
442.12	957.00
442.39	933.00
442.65	919.00
442.91	930.00
443.17	942.00
443.43	945.00
443.69	930.00
443.95	920.00
444.21	927.00
444.47	948.00
444.74	889.00
445.00	935.00
445.26	932.00
445.52	948.00
445.78	917.00
446.04	914.00
446.30	967.00
446.56	971.00
446.82	903.00
447.09	921.00
447.35	952.00
447.61	954.00
447.87	930.00
448.13	933.00
448.39	990.00
448.65	965.00
448.91	907.00
449.17	938.00
449.43	934.00
449.70	927.00
449.96	880.00
450.22	886.00
450.48	925.00
450.74	963.00
451.00	919.00
451.26	929.00
451.52	949.00
451.78	938.00
452.04	912.00
452.31	949.00
452.57	949.00
452.83	948.00
453.09	917.00
453.35	925.00
453.61	947.00
453.87	956.00
454.13	935.00
454.39	944.00
454.65	1009.00
454.91	992.00
455.17	890.00
455.44	926.00
455.70	968.00
455.96	957.00
456.22	910.00
456.48	919.00
456.74	945.00
457.00	922.00
457.26	878.00
457.52	914.00
457.78	936.00
458.04	936.00
458.30	912.00
458.56	934.00
458.82	937.00
459.09	933.00
459.35	885.00
459.61	910.00
459.87	943.00
460.13	979.00
460.39	919.00
460.65	902.00
460.91	963.00
461.17	931.00
461.43	891.00
461.69	906.00
461.95	952.00
462.21	922.00
462.47	932.00
462.73	950.00
462.99	974.00
463.26	958.00
463.52	898.00
463.78	883.00
464.04	920.00
464.30	933.00
464.56	913.00
464.82	919.00
465.08	971.00
465.34	958.00
465.60	938.00
465.86	940.00
466.12	928.00
466.38	918.00
466.64	918.00
466.90	910.00
467.16	937.00
467.42	950.00
467.68	909.00
467.94	935.00
468.20	984.00
468.46	950.00
468.72	932.00
468.98	945.00
469.25	961.00
469.51	931.00
469.77	938.00
470.03	938.00
470.29	940.00
470.55	973.00
470.81	944.00
471.07	944.00
471.33	976.00
471.59	980.00
471.85	941.00
472.11	950.00
472.37	968.00
472.63	932.00
472.89	934.00
473.15	919.00
473.41	944.00
473.67	944.00
473.93	897.00
474.19	905.00
474.45	923.00
474.71	946.00
474.97	910.00
475.23	909.00
475.49	927.00
475.75	935.00
476.01	922.00
476.27	950.00
476.53	975.00
476.79	961.00
477.05	923.00
477.31	918.00
477.57	971.00
477.83	957.00
478.09	891.00
478.35	941.00
478.61	981.00
478.87	946.00
479.13	894.00
479.39	941.00
479.65	967.00
479.91	973.00
480.17	942.00
480.43	946.00
480.69	932.00
480.95	962.00
481.21	932.00
481.47	924.00
481.73	939.00
481.99	929.00
482.25	890.00
482.51	903.00
482.77	954.00
483.03	954.00
483.29	932.00
483.55	926.00
483.81	972.00
484.07	961.00
484.33	920.00
484.59	926.00
484.85	979.00
485.11	957.00
485.37	932.00
485.63	914.00
485.89	923.00
486.15	937.00
486.41	922.00
486.67	921.00
486.93	949.00
487.19	949.00
487.45	923.00
487.71	913.00
487.97	957.00
488.23	966.00
488.49	908.00
488.75	891.00
489.01	961.00
489.27	977.00
489.53	922.00
489.79	910.00
490.05	934.00
490.31	968.00
490.57	940.00
490.83	991.00
491.08	943.00
491.34	915.00
491.60	912.00
491.86	934.00
492.12	995.00
492.38	976.00
492.64	918.00
492.90	911.00
493.16	954.00
493.42	918.00
493.68	902.00
493.94	932.00
494.20	917.00
494.46	941.00
494.72	923.00
494.98	923.00
495.24	909.00
495.50	942.00
495.76	940.00
496.02	947.00
496.28	965.00
496.54	948.00
496.80	924.00
497.05	885.00
497.31	953.00
497.57	940.00
497.83	909.00
498.09	944.00
498.35	965.00
498.61	962.00
498.87	926.00
499.13	925.00
499.39	946.00
499.65	939.00
499.91	923.00
500.17	902.00
500.43	996.00
500.69	1022.00
500.95	901.00
501.20	949.00
501.46	959.00
501.72	957.00
501.98	958.00
502.24	949.00
502.50	982.00
502.76	947.00
503.02	927.00
503.28	931.00
503.54	987.00
503.80	994.00
504.06	950.00
504.32	964.00
504.58	970.00
504.83	958.00
505.09	912.00
505.35	935.00
505.61	918.00
505.87	930.00
506.13	941.00
506.39	920.00
506.65	953.00
506.91	978.00
507.17	899.00
507.43	910.00
507.68	925.00
507.94	973.00
508.20	928.00
508.46	900.00
508.72	958.00
508.98	983.00
509.24	897.00
509.50	928.00
509.76	926.00
510.02	938.00
510.28	924.00
510.53	925.00
510.79	971.00
511.05	944.00
511.31	906.00
511.57	929.00
511.83	940.00
512.09	970.00
512.35	932.00
512.61	939.00
512.87	958.00
513.12	961.00
513.38	902.00
513.64	936.00
513.90	958.00
514.16	982.00
514.42	932.00
514.68	939.00
514.94	960.00
515.20	963.00
515.45	913.00
515.71	909.00
515.97	945.00
516.23	950.00
516.49	937.00
516.75	913.00
517.01	933.00
517.27	930.00
517.53	883.00
517.78	919.00
518.04	950.00
518.30	913.00
518.56	911.00
518.82	946.00
519.08	971.00
519.34	916.00
519.60	904.00
519.85	936.00
520.11	940.00
520.37	941.00
520.63	938.00
520.89	947.00
521.15	949.00
521.41	939.00
521.66	931.00
521.92	926.00
522.18	970.00
522.44	974.00
522.70	942.00
522.96	898.00
523.22	958.00
523.48	949.00
523.73	909.00
523.99	900.00
524.25	979.00
524.51	968.00
524.77	930.00
525.03	908.00
525.29	931.00
525.54	956.00
525.80	935.00
526.06	925.00
526.32	938.00
526.58	933.00
526.84	907.00
527.09	919.00
527.35	929.00
527.61	937.00
527.87	902.00
528.13	939.00
528.39	933.00
528.65	933.00
528.90	887.00
529.16	911.00
529.42	913.00
529.68	908.00
529.94	913.00
530.20	915.00
530.45	903.00
530.71	932.00
530.97	902.00
531.23	929.00
531.49	949.00
531.75	915.00
532.00	905.00
532.26	910.00
532.52	950.00
532.78	938.00
533.04	897.00
533.30	904.00
533.55	927.00
533.81	942.00
534.07	898.00
534.33	918.00
534.59	956.00
534.85	946.00
535.10	910.00
535.36	887.00
535.62	927.00
535.88	917.00
536.14	907.00
536.39	916.00
536.65	958.00
536.91	974.00
537.17	911.00
537.43	919.00
537.69	958.00
537.94	945.00
538.20	887.00
538.46	919.00
538.72	965.00
538.98	963.00
539.23	916.00
539.49	911.00
539.75	955.00
540.01	957.00
540.27	916.00
540.52	956.00
540.78	959.00
541.04	953.00
541.30	908.00
541.56	900.00
541.81	973.00
542.07	1018.00
542.33	932.00
542.59	930.00
542.85	951.00
543.10	940.00
543.36	900.00
543.62	935.00
543.88	916.00
544.14	921.00
544.39	898.00
544.65	938.00
544.91	973.00
545.17	932.00
545.43	917.00
545.68	923.00
545.94	952.00
546.20	956.00
546.46	929.00
546.71	919.00
546.97	955.00
547.23	950.00
547.49	916.00
547.75	928.00
548.00	960.00
548.26	985.00
548.52	926.00
548.78	904.00
549.03	935.00
549.29	939.00
549.55	913.00
549.81	939.00
550.07	953.00
550.32	938.00
550.58	887.00
550.84	937.00
551.10	937.00
551.35	926.00
551.61	903.00
551.87	940.00
552.13	964.00
552.39	933.00
552.64	909.00
552.90	930.00
553.16	938.00
553.42	939.00
553.67	914.00
553.93	927.00
554.19	961.00
554.45	980.00
554.70	916.00
554.96	908.00
555.22	944.00
555.48	964.00
555.73	918.00
555.99	932.00
556.25	961.00
556.51	948.00
556.76	913.00
557.02	926.00
557.28	965.00
557.54	936.00
557.79	934.00
558.05	959.00
558.31	926.00
558.57	947.00
558.82	915.00
559.08	890.00
559.34	895.00
559.60	955.00
559.85	921.00
560.11	933.00
560.37	930.00
560.63	906.00
560.88	905.00
561.14	918.00
561.40	955.00
561.66	927.00
561.91	915.00
562.17	925.00
562.43	944.00
562.68	964.00
562.94	934.00
563.20	941.00
563.46	952.00
563.71	958.00
563.97	921.00
564.23	950.00
564.49	966.00
564.74	949.00
565.00	900.00
565.26	914.00
565.51	939.00
565.77	914.00
566.03	895.00
566.29	926.00
566.54	928.00
566.80	936.00
567.06	918.00
567.31	946.00
567.57	970.00
567.83	937.00
568.09	925.00
568.34	912.00
568.60	932.00
568.86	978.00
569.11	932.00
569.37	922.00
569.63	946.00
569.89	963.00
570.14	892.00
570.40	914.00
570.66	928.00
570.91	937.00
571.17	908.00
571.43	933.00
571.69	967.00
571.94	970.00
572.20	902.00
572.46	922.00
572.71	960.00
572.97	947.00
573.23	910.00
573.48	899.00
573.74	918.00
574.00	953.00
574.26	914.00
574.51	912.00
574.77	952.00
575.03	942.00
575.28	924.00
575.54	911.00
575.80	925.00
576.05	945.00
576.31	908.00
576.57	896.00
576.82	936.00
577.08	940.00
577.34	909.00
577.59	918.00
577.85	971.00
578.11	926.00
578.37	894.00
578.62	906.00
578.88	944.00
579.14	949.00
579.39	916.00
579.65	925.00
579.91	915.00
580.16	939.00
580.42	920.00
580.68	937.00
580.93	952.00
581.19	936.00
581.45	901.00
581.70	940.00
581.96	978.00
582.22	984.00
582.47	941.00
582.73	944.00
582.99	963.00
583.24	964.00
583.50	893.00
583.76	916.00
584.01	927.00
584.27	953.00
584.53	934.00
584.78	942.00
585.04	924.00
585.30	952.00
585.55	928.00
585.81	921.00
586.07	974.00
586.32	987.00
586.58	931.00
586.83	916.00
587.09	949.00
587.35	964.00
587.60	923.00
587.86	920.00
588.12	939.00
588.37	957.00
588.63	918.00
588.89	933.00
589.14	957.00
589.40	958.00
589.66	920.00
589.91	914.00
590.17	934.00
590.43	918.00
590.68	912.00
590.94	923.00
591.19	957.00
591.45	945.00
591.71	933.00
591.96	930.00
592.22	953.00
592.48	962.00
592.73	905.00
592.99	909.00
593.25	952.00
593.50	962.00
593.76	914.00
594.01	915.00
594.27	948.00
594.53	936.00
594.78	910.00
595.04	937.00
595.30	949.00
595.55	961.00
595.81	906.00
596.06	948.00
596.32	988.00
596.58	979.00
596.83	936.00
597.09	956.00
597.35	958.00
597.60	950.00
597.86	914.00
598.11	935.00
598.37	989.00
598.63	972.00
598.88	920.00
599.14	933.00
599.39	987.00
599.65	964.00
599.91	902.00
600.16	934.00
600.42	977.00
600.67	985.00
600.93	935.00
601.19	954.00
601.44	1014.00
601.70	997.00
601.95	939.00
602.21	958.00
602.47	960.00
602.72	979.00
602.98	949.00
603.23	947.00
603.49	996.00
603.75	1023.00
604.00	965.00
604.26	949.00
604.51	949.00
604.77	992.00
605.03	934.00
605.28	942.00
605.54	1002.00
605.79	1025.00
606.05	942.00
606.31	956.00
606.56	984.00
606.82	1015.00
607.07	986.00
607.33	993.00
607.59	1009.00
607.84	982.00
608.10	947.00
608.35	978.00
608.61	1010.00
608.86	1004.00
609.12	1010.00
609.38	1014.00
609.63	1047.00
609.89	1010.00
610.14	953.00
610.40	980.00
610.65	996.00
610.91	1013.00
611.17	984.00
611.42	1007.00
611.68	1059.00
611.93	1081.00
612.19	1050.00
612.44	1054.00
612.70	1066.00
612.96	1039.00
613.21	1021.00
613.47	1002.00
613.72	1030.00
613.98	1077.00
614.23	1035.00
614.49	1069.00
614.75	1094.00
615.00	1075.00
615.26	1065.00
615.51	1072.00
615.77	1103.00
616.02	1133.00
616.28	1122.00
616.53	1135.00
616.79	1145.00
617.05	1128.00
617.30	1109.00
617.56	1129.00
617.81	1159.00
618.07	1163.00
618.32	1115.00
618.58	1153.00
618.83	1188.00
619.09	1196.00
619.34	1164.00
619.60	1186.00
619.86	1259.00
620.11	1278.00
620.37	1262.00
620.62	1299.00
620.88	1325.00
621.13	1348.00
621.39	1366.00
621.64	1352.00
621.90	1390.00
622.15	1360.00
622.41	1357.00
622.66	1405.00
622.92	1441.00
623.18	1464.00
623.43	1386.00
623.69	1426.00
623.94	1486.00
624.20	1587.00
624.45	1625.00
624.71	1664.00
624.96	1691.00
625.22	1747.00
625.47	1711.00
625.73	1718.00
625.98	1755.00
626.24	1767.00
626.49	1760.00
626.75	1773.00
627.00	1838.00
627.26	1892.00
627.51	1908.00
627.77	2009.00
628.02	2096.00
628.28	2261.00
628.53	2370.00
628.79	2402.00
629.05	2395.00
629.30	2431.00
629.56	2465.00
629.81	2611.00
630.07	2886.00
630.32	3270.00
630.58	3154.00
630.83	2961.00
631.09	2884.00
631.34	2889.00
631.60	3068.00
631.85	3336.00
632.11	3523.00
632.36	3655.00
632.62	3914.00
632.87	4027.00
633.13	4222.00
633.38	4270.00
633.64	4158.00
633.89	3917.00
634.15	3891.00
634.40	4136.00
634.66	3950.00
634.91	4049.00
635.17	4431.00
635.42	4659.00
635.68	4810.00
635.93	4676.00
636.18	4482.00
636.44	4543.00
636.69	4875.00
636.95	5226.00
637.20	5522.00
637.46	5308.00
637.71	4894.00
637.97	4740.00
638.22	5021.00
638.48	4986.00
638.73	4549.00
638.99	4245.00
639.24	4190.00
639.50	4321.00
639.75	4309.00
640.01	4083.00
640.26	3712.00
640.52	3638.00
640.77	3571.00
641.03	3631.00
641.28	3918.00
641.54	3905.00
641.79	3401.00
642.04	3125.00
642.30	3080.00
642.55	3166.00
642.81	3093.00
643.06	3070.00
643.32	3031.00
643.57	2918.00
643.83	2601.00
644.08	2393.00
644.34	2237.00
644.59	2104.00
644.85	2124.00
645.10	2105.00
645.35	2057.00
645.61	2017.00
645.86	1869.00
646.12	1785.00
646.37	1756.00
646.63	1754.00
646.88	1685.00
647.14	1696.00
647.39	1732.00
647.65	1699.00
647.90	1563.00
648.15	1604.00
648.41	1600.00
648.66	1539.00
648.92	1483.00
649.17	1465.00
649.43	1398.00
649.68	1377.00
649.94	1350.00
650.19	1322.00
650.44	1314.00
650.70	1323.00
650.95	1271.00
651.21	1261.00
651.46	1271.00
651.72	1265.00
651.97	1217.00
652.23	1198.00
652.48	1194.00
652.73	1139.00
652.99	1108.00
653.24	1143.00
653.50	1137.00
653.75	1097.00
654.01	1059.00
654.26	1102.00
654.51	1103.00
654.77	1102.00
655.02	1077.00
655.28	1057.00
655.53	1044.00
655.79	1045.00
656.04	1013.00
656.29	1024.00
656.55	1024.00
656.80	1032.00
657.06	993.00
657.31	1007.00
657.56	1009.00
657.82	1015.00
658.07	991.00
658.33	1009.00
658.58	1015.00
658.84	1035.00
659.09	999.00
659.34	1005.00
659.60	1010.00
659.85	1001.00
660.11	962.00
660.36	982.00
660.61	984.00
660.87	962.00
661.12	938.00
661.38	948.00
661.63	958.00
661.88	972.00
662.14	976.00
662.39	959.00
662.65	989.00
662.90	1012.00
663.15	939.00
663.41	955.00
663.66	1021.00
663.92	1022.00
664.17	945.00
664.42	960.00
664.68	990.00
664.93	958.00
665.19	925.00
665.44	940.00
665.69	929.00
665.95	947.00
666.20	925.00
666.45	961.00
666.71	974.00
666.96	985.00
667.22	923.00
667.47	944.00
667.72	947.00
667.98	940.00
668.23	928.00
668.49	972.00
668.74	979.00
668.99	950.00
669.25	920.00
669.50	926.00
669.75	944.00
670.01	952.00
670.26	904.00
670.52	918.00
670.77	972.00
671.02	958.00
671.28	909.00
671.53	936.00
671.78	954.00
672.04	956.00
672.29	922.00
672.54	912.00
672.80	942.00
673.05	948.00
673.31	921.00
673.56	962.00
673.81	988.00
674.07	962.00
674.32	953.00
674.57	937.00
674.83	934.00
675.08	966.00
675.33	932.00
675.59	938.00
675.84	959.00
676.09	950.00
676.35	934.00
676.60	947.00
676.86	947.00
677.11	979.00
677.36	944.00
677.62	946.00
677.87	976.00
678.12	999.00
678.38	921.00
678.63	919.00
678.88	954.00
679.14	983.00
679.39	902.00
679.64	936.00
679.90	931.00
680.15	979.00
680.40	946.00
680.66	918.00
680.91	939.00
681.16	945.00
681.42	896.00
681.67	930.00
681.92	945.00
682.18	978.00
682.43	936.00
682.68	912.00
682.94	933.00
683.19	921.00
683.44	921.00
683.70	946.00
683.95	954.00
684.20	941.00
684.46	932.00
684.71	953.00
684.96	924.00
685.22	951.00
685.47	933.00
685.72	950.00
685.98	936.00
686.23	886.00
686.48	889.00
686.74	944.00
686.99	977.00
687.24	947.00
687.50	920.00
687.75	928.00
688.00	930.00
688.25	952.00
688.51	929.00
688.76	952.00
689.01	940.00
689.27	927.00
689.52	890.00
689.77	924.00
690.03	902.00
690.28	926.00
690.53	913.00
690.79	942.00
691.04	933.00
691.29	945.00
691.54	884.00
691.80	934.00
692.05	929.00
692.30	937.00
692.56	913.00
692.81	938.00
693.06	936.00
693.32	908.00
693.57	903.00
693.82	935.00
694.07	957.00
694.33	946.00
694.58	906.00
694.83	927.00
695.09	923.00
695.34	962.00
695.59	935.00
695.84	939.00
696.10	963.00
696.35	943.00
696.60	888.00
696.86	904.00
697.11	948.00
697.36	936.00
697.61	903.00
697.87	925.00
698.12	923.00
698.37	945.00
698.63	916.00
698.88	897.00
699.13	930.00
699.38	934.00
699.64	904.00
699.89	921.00
700.14	915.00
700.39	922.00
700.65	902.00
700.90	935.00
701.15	923.00
701.40	938.00
701.66	902.00
701.91	913.00
702.16	923.00
702.42	920.00
702.67	886.00
702.92	904.00
703.17	920.00
703.43	948.00
703.68	936.00
703.93	946.00
704.18	964.00
704.44	930.00
704.69	914.00
704.94	934.00
705.19	930.00
705.45	948.00
705.70	924.00
705.95	906.00
706.20	906.00
706.46	937.00
706.71	911.00
706.96	926.00
707.21	920.00
707.47	925.00
707.72	920.00
707.97	928.00
708.22	948.00
708.48	963.00
708.73	913.00
708.98	886.00
709.23	917.00
709.49	930.00
709.74	911.00
709.99	902.00
710.24	920.00
710.50	930.00
710.75	922.00
711.00	938.00
711.25	940.00
711.50	921.00
711.76	889.00
712.01	901.00
712.26	909.00
712.51	947.00
712.77	920.00
713.02	930.00
713.27	909.00
713.52	916.00
713.78	912.00
714.03	926.00
714.28	915.00
714.53	925.00
714.78	895.00
715.04	929.00
715.29	946.00
715.54	950.00
715.79	894.00
716.05	926.00
716.30	949.00
716.55	950.00
716.80	922.00
717.05	931.00
717.31	923.00
717.56	936.00
717.81	936.00
718.06	916.00
718.31	920.00
718.57	946.00
718.82	916.00
719.07	945.00
719.32	919.00
719.57	937.00
719.83	896.00
720.08	919.00
720.33	926.00
720.58	929.00
720.83	889.00
721.09	953.00
721.34	931.00
721.59	953.00
721.84	920.00
722.09	931.00
722.35	955.00
722.60	941.00
722.85	905.00
723.10	927.00
723.35	904.00
723.61	938.00
723.86	932.00
724.11	922.00
724.36	934.00
724.61	919.00
724.87	921.00
725.12	914.00
725.37	920.00
725.62	910.00
725.87	900.00
726.12	909.00
726.38	917.00
726.63	941.00
726.88	908.00
727.13	920.00
727.38	934.00
727.64	922.00
727.89	910.00
728.14	908.00
728.39	905.00
728.64	946.00
728.89	914.00
729.15	930.00
729.40	933.00
729.65	952.00
729.90	888.00
730.15	917.00
730.40	939.00
730.66	927.00
730.91	917.00
731.16	913.00
731.41	917.00
731.66	929.00
731.91	909.00
732.17	950.00
732.42	937.00
732.67	934.00
732.92	892.00
733.17	940.00
733.42	928.00
733.68	933.00
733.93	894.00
734.18	900.00
734.43	907.00
734.68	923.00
734.93	929.00
735.18	935.00
735.44	940.00
735.69	938.00
735.94	888.00
736.19	912.00
736.44	920.00
736.69	973.00
736.95	921.00
737.20	935.00
737.45	936.00
737.70	942.00
737.95	937.00
738.20	962.00
738.45	956.00
738.70	925.00
738.96	916.00
739.21	946.00
739.46	948.00
739.71	956.00
739.96	919.00
740.21	959.00
740.46	1004.00
740.72	988.00
740.97	919.00
741.22	941.00
741.47	903.00
741.72	929.00
741.97	887.00
742.22	913.00
742.47	941.00
742.73	930.00
742.98	895.00
743.23	897.00
743.48	930.00
743.73	944.00
743.98	921.00
744.23	914.00
744.48	928.00
744.74	919.00
744.99	896.00
745.24	940.00
745.49	922.00
745.74	955.00
745.99	896.00
746.24	925.00
746.49	911.00
746.74	923.00
747.00	935.00
747.25	916.00
747.50	879.00
747.75	899.00
748.00	888.00
748.25	916.00
748.50	926.00
748.75	955.00
749.00	954.00
749.26	953.00
749.51	937.00
749.76	944.00
750.01	887.00
750.26	922.00
750.51	966.00
750.76	940.00
751.01	910.00
751.26	920.00
751.51	934.00
751.77	952.00
752.02	914.00
752.27	928.00
752.52	924.00
752.77	938.00
753.02	909.00
753.27	926.00
753.52	904.00
753.77	916.00
754.02	906.00
754.27	920.00
754.52	907.00
754.78	941.00
755.03	910.00
755.28	936.00
755.53	930.00
755.78	929.00
756.03	901.00
756.28	925.00
756.53	921.00
756.78	921.00
757.03	917.00
757.28	931.00
757.53	944.00
757.79	893.00
758.04	884.00
758.29	955.00
758.54	961.00
758.79	953.00
759.04	900.00
759.29	900.00
759.54	916.00
759.79	922.00
760.04	912.00
760.29	919.00
760.54	927.00
760.79	908.00
761.04	890.00
761.29	918.00
761.55	894.00
761.80	923.00
762.05	892.00
762.30	922.00
762.55	917.00
762.80	928.00
763.05	921.00
763.30	948.00
763.55	956.00
763.80	935.00
764.05	902.00
764.30	936.00
764.55	960.00
764.80	934.00
765.05	899.00
765.30	923.00
765.55	925.00
765.80	922.00
766.05	878.00
766.30	930.00
766.56	948.00
766.81	951.00
767.06	921.00
767.31	929.00
767.56	927.00
767.81	923.00
768.06	905.00
768.31	918.00
768.56	928.00
768.81	977.00
769.06	900.00
769.31	917.00
769.56	908.00
769.81	940.00
770.06	901.00
770.31	898.00
770.56	930.00
770.81	916.00
771.06	872.00
771.31	908.00
771.56	913.00
771.81	949.00
772.06	892.00
772.31	932.00
772.56	924.00
772.81	958.00
773.06	921.00
773.31	941.00
773.56	937.00
773.81	905.00
774.06	897.00
774.31	937.00
774.56	944.00
774.81	962.00
775.06	914.00
775.31	929.00
775.56	929.00
775.81	924.00
776.06	885.00
776.31	925.00
776.56	918.00
776.82	941.00
777.07	894.00
777.32	920.00
777.57	912.00
777.82	953.00
778.07	913.00
778.32	905.00
778.57	928.00
778.82	952.00
779.07	926.00
779.32	923.00
779.57	895.00
779.82	925.00
780.07	904.00
780.32	927.00
780.56	937.00
780.81	962.00
781.06	894.00
781.31	909.00
781.56	954.00
781.81	948.00
782.06	906.00
782.31	929.00
782.56	931.00
782.81	962.00
783.06	900.00
783.31	930.00
783.56	919.00
783.81	941.00
784.06	926.00
784.31	921.00
784.56	901.00
784.81	969.00
785.06	926.00
785.31	932.00
785.56	898.00
785.81	896.00
786.06	882.00
786.31	920.00
786.56	920.00
786.81	937.00
787.06	938.00
787.31	947.00
787.56	916.00
787.81	907.00
788.06	892.00
788.31	936.00
788.56	903.00
788.81	946.00
789.06	912.00
789.31	905.00
789.56	915.00
789.81	929.00
790.06	908.00
790.31	953.00
790.56	918.00
790.80	923.00
791.05	890.00
791.30	893.00
791.55	909.00
791.80	941.00
792.05	914.00
792.30	902.00
792.55	901.00
792.80	919.00
793.05	902.00
793.30	904.00
793.55	939.00
793.80	934.00
794.05	890.00
794.30	913.00
794.55	924.00
794.80	939.00
795.05	889.00
795.30	901.00
795.54	904.00
795.79	942.00
796.04	892.00
796.29	919.00
796.54	927.00
796.79	950.00
797.04	910.00
797.29	920.00
797.54	954.00
797.79	949.00
798.04	905.00
798.29	909.00
798.54	912.00
798.79	920.00
799.04	893.00
799.29	914.00
799.53	926.00
799.78	924.00
800.03	897.00
800.28	887.00
800.53	914.00
800.78	958.00
801.03	920.00
801.28	921.00
801.53	916.00
801.78	953.00
802.03	912.00
802.28	920.00
802.52	948.00
802.77	968.00
803.02	929.00
803.27	922.00
803.52	897.00
803.77	940.00
804.02	927.00
804.27	933.00
804.52	911.00
804.77	958.00
805.02	930.00
805.27	944.00
805.51	929.00
805.76	953.00
806.01	904.00
806.26	906.00
806.51	915.00
806.76	956.00
807.01	943.00
807.26	905.00
807.51	937.00
807.76	898.00
808.00	892.00
808.25	923.00
808.50	953.00
808.75	935.00
809.00	910.00
809.25	922.00
809.50	934.00
809.75	960.00
810.00	935.00
810.24	927.00
810.49	902.00
810.74	898.00
810.99	898.00
811.24	924.00
811.49	924.00
811.74	945.00
811.99	904.00
812.24	926.00
812.48	889.00
812.73	897.00
812.98	883.00
813.23	898.00
813.48	919.00
813.73	925.00
813.98	869.00
814.23	900.00
814.47	905.00
814.72	915.00
814.97	890.00
815.22	934.00
815.47	911.00
815.72	922.00
815.97	886.00
816.22	908.00
816.46	918.00
816.71	946.00
816.96	913.00
817.21	925.00
817.46	910.00
817.71	927.00
817.96	905.00
818.20	897.00
818.45	896.00
818.70	921.00
818.95	894.00
819.20	917.00
819.45	916.00
819.70	918.00
819.94	902.00
820.19	916.00
820.44	916.00
820.69	941.00
820.94	933.00
821.19	955.00
821.44	978.00
821.68	996.00
821.93	926.00
822.18	938.00
822.43	954.00
822.68	962.00
822.93	919.00
823.17	925.00
823.42	920.00
823.67	910.00
823.92	895.00
824.17	924.00
824.42	923.00
824.67	946.00
824.91	919.00
825.16	912.00
825.41	925.00
825.66	928.00
825.91	890.00
826.16	907.00
826.40	939.00
826.65	948.00
826.90	912.00
827.15	932.00
827.40	925.00
827.65	950.00
827.89	867.00
828.14	910.00
828.39	925.00
828.64	937.00
828.89	907.00
829.13	898.00
829.38	901.00
829.63	916.00
829.88	879.00
830.13	886.00
830.38	886.00
830.62	923.00
830.87	906.00
831.12	925.00
831.37	952.00
831.62	960.00
831.86	893.00
832.11	928.00
832.36	915.00
832.61	934.00
832.86	921.00
833.10	940.00
833.35	932.00
833.60	950.00
833.85	910.00
834.10	934.00
834.35	954.00
834.59	972.00
834.84	912.00
835.09	929.00
835.34	908.00
835.59	922.00
835.83	923.00
836.08	939.00
836.33	937.00
836.58	941.00
836.83	910.00
837.07	912.00
837.32	928.00
837.57	930.00
837.82	904.00
838.06	930.00
838.31	946.00
838.56	950.00
838.81	900.00
839.06	942.00
839.30	929.00
839.55	936.00
839.80	898.00
840.05	931.00
840.30	935.00
840.54	954.00
840.79	894.00
841.04	920.00
841.29	925.00
841.53	941.00
841.78	901.00
842.03	890.00
842.28	888.00
842.53	916.00
842.77	915.00
843.02	930.00
843.27	934.00
843.52	936.00
843.76	899.00
844.01	936.00
844.26	922.00
844.51	941.00
844.75	915.00
845.00	902.00
845.25	920.00
845.50	957.00
845.75	895.00
845.99	921.00
846.24	915.00
846.49	920.00
846.74	885.00
846.98	901.00
847.23	907.00
847.48	933.00
847.73	888.00
847.97	919.00
848.22	961.00
848.47	946.00
848.72	897.00
848.96	906.00
849.21	937.00
849.46	906.00
849.71	902.00
849.95	904.00
850.20	892.00
850.45	919.00
850.70	886.00
850.94	912.00
851.19	917.00
851.44	914.00
851.69	867.00
851.93	916.00
852.18	946.00
852.43	929.00
852.68	918.00
852.92	945.00
853.17	945.00
853.42	942.00
853.66	930.00
853.91	939.00
854.16	913.00
854.41	957.00
854.65	904.00
854.90	917.00
855.15	911.00
855.40	943.00
855.64	930.00
855.89	928.00
856.14	916.00
856.39	920.00
856.63	904.00
856.88	913.00
857.13	912.00
857.37	905.00
857.62	884.00
857.87	885.00
858.12	913.00
858.36	964.00
858.61	876.00
858.86	902.00
859.10	937.00
859.35	928.00
859.60	892.00
859.85	884.00
860.09	913.00
860.34	936.00
860.59	914.00
860.83	924.00
861.08	918.00
861.33	948.00
861.58	913.00
861.82	921.00
862.07	922.00
862.32	929.00
862.56	896.00
862.81	907.00
863.06	921.00
863.30	911.00
863.55	916.00
863.80	932.00
864.05	925.00
864.29	913.00
864.54	913.00
864.79	928.00
865.03	927.00
865.28	944.00
865.53	920.00
865.77	897.00
866.02	925.00
866.27	948.00
866.51	910.00
866.76	888.00
867.01	899.00
867.26	932.00
867.50	901.00
867.75	886.00
868.00	921.00
868.24	928.00
868.49	908.00
868.74	930.00
868.98	934.00
869.23	939.00
869.48	912.00
869.72	903.00
869.97	914.00
870.22	945.00
870.46	908.00
870.71	919.00
870.96	915.00
871.20	942.00
871.45	873.00
871.70	896.00
871.94	947.00
872.19	952.00
872.44	917.00
872.68	905.00
872.93	912.00
873.18	937.00
873.42	914.00
873.67	932.00
873.92	940.00
874.16	936.00
874.41	917.00
874.66	925.00
874.90	933.00
875.15	948.00
875.40	926.00
875.64	931.00
875.89	936.00
876.14	930.00
876.38	899.00
876.63	913.00
876.88	927.00
877.12	924.00
877.37	904.00
877.62	924.00
877.86	925.00
878.11	926.00
878.36	898.00
878.60	912.00
878.85	919.00
879.09	928.00
879.34	902.00
879.59	926.00
879.83	928.00
880.08	961.00
880.33	924.00
880.57	938.00
880.82	929.00
881.07	936.00
881.31	915.00
881.56	919.00
881.80	917.00
882.05	941.00
882.30	871.00
882.54	904.00
882.79	954.00
883.04	982.00
883.28	932.00
883.53	926.00
883.77	929.00
884.02	955.00
884.27	888.00
884.51	891.00
884.76	921.00
885.01	938.00
885.25	884.00
885.50	916.00
885.74	908.00
885.99	944.00
886.24	904.00
886.48	908.00
886.73	934.00
886.98	965.00
887.22	938.00
887.47	930.00
887.71	950.00
887.96	941.00
888.21	918.00
888.45	898.00
888.70	907.00
888.94	962.00
889.19	903.00
889.44	913.00
889.68	927.00
889.93	960.00
890.17	908.00
890.42	910.00
890.67	954.00
890.91	1023.00
891.16	908.00
891.40	900.00
891.65	910.00
891.90	948.00
892.14	880.00
892.39	932.00
892.63	938.00
892.88	953.00
893.13	908.00
893.37	906.00
893.62	918.00
893.86	963.00
894.11	907.00
894.36	906.00
894.60	918.00
894.85	907.00
895.09	890.00
895.34	952.00
895.59	930.00
895.83	927.00
896.08	886.00
896.32	914.00
896.57	921.00
896.81	915.00
897.06	896.00
897.31	910.00
897.55	946.00
897.80	926.00
898.04	877.00
898.29	917.00
898.53	922.00
898.78	930.00
899.03	915.00
899.27	903.00
899.52	930.00
899.76	957.00
900.01	912.00
900.25	926.00
900.50	940.00
900.75	949.00
900.99	913.00
901.24	982.00
901.48	933.00
901.73	925.00
901.97	894.00
902.22	919.00
902.47	935.00
902.71	929.00
902.96	893.00
903.20	919.00
903.45	933.00
903.69	936.00
903.94	924.00
904.18	893.00
904.43	909.00
904.68	942.00
904.92	894.00
905.17	917.00
905.41	927.00
905.66	928.00
905.90	929.00
906.15	921.00
906.39	937.00
906.64	937.00
906.88	894.00
907.13	904.00
907.38	942.00
907.62	962.00
907.87	906.00
908.11	926.00
908.36	905.00
908.60	923.00
908.85	875.00
909.09	909.00
909.34	915.00
909.58	932.00
909.83	902.00
910.07	922.00
910.32	969.00
910.56	981.00
910.81	898.00
911.06	927.00
911.30	922.00
911.55	916.00
911.79	897.00
912.04	903.00
912.28	907.00
912.53	947.00
912.77	918.00
913.02	913.00
913.26	929.00
913.51	913.00
913.75	900.00
914.00	917.00
914.24	935.00
914.49	936.00
914.73	912.00
914.98	949.00
915.22	961.00
915.47	929.00
915.71	893.00
915.96	926.00
916.20	939.00
916.45	903.00
916.69	879.00
916.94	902.00
917.18	924.00
917.43	927.00
917.67	896.00
917.92	890.00
918.16	938.00
918.41	926.00
918.65	893.00
918.90	897.00
919.14	907.00
919.39	933.00
919.63	901.00
919.88	897.00
920.12	940.00
920.37	926.00
920.61	889.00
920.86	930.00
921.10	944.00
921.35	916.00
921.59	892.00
921.84	927.00
922.08	949.00
922.33	956.00
922.57	873.00
922.82	883.00
923.06	915.00
923.31	936.00
923.55	873.00
923.80	909.00
924.04	920.00
924.29	961.00
924.53	906.00
924.78	922.00
925.02	914.00
925.27	925.00
925.51	922.00
925.76	946.00
926.00	922.00
926.25	923.00
926.49	899.00
926.73	937.00
926.98	928.00
927.22	935.00
927.47	917.00
927.71	927.00
927.96	930.00
928.20	922.00
928.45	920.00
928.69	961.00
928.94	948.00
929.18	932.00
929.43	936.00
929.67	927.00
929.91	929.00
930.16	943.00
930.40	885.00
930.65	889.00
930.89	912.00
931.14	949.00
931.38	921.00
931.63	926.00
931.87	938.00
932.12	924.00
932.36	882.00
932.60	886.00
932.85	931.00
933.09	922.00
933.34	892.00
933.58	926.00
933.83	908.00
934.07	933.00
934.32	910.00
934.56	926.00
934.80	969.00
935.05	972.00
935.29	905.00
935.54	913.00
935.78	933.00
936.03	939.00
936.27	886.00
936.52	902.00
936.76	922.00
937.00	936.00
937.25	896.00
937.49	927.00
937.74	952.00
937.98	950.00
938.23	896.00
938.47	891.00
938.71	907.00
938.96	912.00
939.20	878.00
939.45	907.00
939.69	926.00
939.94	935.00
940.18	866.00
940.42	893.00
940.67	924.00
940.91	929.00
941.16	907.00
941.40	883.00
941.64	902.00
941.89	933.00
942.13	891.00
942.38	922.00
942.62	990.00
942.87	952.00
943.11	921.00
943.35	897.00
943.60	918.00
943.84	956.00
944.09	923.00
944.33	960.00
944.57	949.00
944.82	925.00
945.06	905.00
945.31	930.00
945.55	924.00
945.79	945.00
946.04	914.00
946.28	919.00
946.53	924.00
946.77	941.00
947.01	885.00
947.26	933.00
947.50	928.00
947.75	938.00
947.99	930.00
948.23	939.00
948.48	926.00
948.72	930.00
948.97	899.00
949.21	904.00
949.45	927.00
949.70	965.00
949.94	914.00
950.18	933.00
950.43	917.00
950.67	933.00
950.92	903.00
951.16	910.00
951.40	906.00
951.65	925.00
951.89	892.00
952.13	924.00
952.38	929.00
952.62	930.00
952.87	893.00
953.11	932.00
953.35	960.00
953.60	938.00
953.84	856.00
954.08	877.00
954.33	922.00
954.57	936.00
954.82	926.00
955.06	911.00
955.30	902.00
955.55	920.00
955.79	906.00
956.03	912.00
956.28	902.00
956.52	920.00
956.76	919.00
957.01	938.00
957.25	925.00
957.50	927.00
957.74	880.00
957.98	911.00
958.23	932.00
958.47	925.00
958.71	916.00
958.96	947.00
959.20	970.00
959.44	932.00
959.69	894.00
959.93	923.00
960.17	927.00
960.42	934.00
960.66	913.00
960.90	926.00
961.15	920.00
961.39	921.00
961.64	889.00
961.88	882.00
962.12	919.00
962.37	926.00
962.61	895.00
962.85	894.00
963.10	935.00
963.34	951.00
963.58	894.00
963.83	929.00
964.07	952.00
964.31	941.00
964.56	926.00
964.80	912.00
965.04	942.00
965.29	938.00
965.53	897.00
965.77	913.00
966.02	883.00
966.26	912.00
966.50	878.00
966.74	926.00
966.99	959.00
967.23	935.00
967.47	893.00
967.72	926.00
967.96	929.00
968.20	909.00
968.45	899.00
968.69	909.00
968.93	909.00
969.18	924.00
969.42	917.00
969.66	922.00
969.91	920.00
970.15	958.00
970.39	894.00
970.64	907.00
970.88	925.00
971.12	932.00
971.36	905.00
971.61	903.00
971.85	921.00
972.09	925.00
972.34	892.00
972.58	916.00
972.82	939.00
973.07	965.00
973.31	885.00
973.55	891.00
973.79	934.00
974.04	960.00
974.28	923.00
974.52	926.00
974.77	906.00
975.01	947.00
975.25	915.00
975.50	934.00
975.74	948.00
975.98	950.00
976.22	913.00
976.47	902.00
976.71	927.00
976.95	939.00
977.20	928.00
977.44	935.00
977.68	931.00
977.92	937.00
978.17	895.00
978.41	911.00
978.65	924.00
978.90	921.00
979.14	922.00
979.38	922.00
979.62	923.00
979.87	905.00
980.11	866.00
980.35	913.00
980.59	924.00
980.84	951.00
981.08	897.00
981.32	913.00
981.57	939.00
981.81	931.00
982.05	912.00
982.29	896.00
982.54	904.00
982.78	921.00
983.02	899.00
983.26	909.00
983.51	930.00
983.75	942.00
983.99	890.00
984.23	932.00
984.48	932.00
984.72	959.00
984.96	892.00
985.20	889.00
985.45	972.00
985.69	932.00
985.93	915.00
986.17	953.00
986.42	937.00
986.66	925.00
986.90	868.00
987.14	874.00
987.39	923.00
987.63	915.00
987.87	880.00
988.11	908.00
988.36	935.00
988.60	922.00
988.84	919.00
989.08	901.00
989.33	950.00
989.57	951.00
989.81	867.00
990.05	876.00
990.30	911.00
990.54	896.00
990.78	904.00
991.02	910.00
991.27	923.00
991.51	931.00
991.75	912.00
991.99	924.00
992.23	902.00
992.48	891.00
992.72	891.00
992.96	886.00
993.20	898.00
993.45	930.00
993.69	916.00
993.93	898.00
994.17	935.00
994.41	928.00
994.66	889.00
994.90	909.00
995.14	950.00
995.38	920.00
995.63	890.00
995.87	906.00
996.11	953.00
996.35	926.00
996.59	882.00
996.84	892.00
997.08	932.00
997.32	916.00
997.56	898.00
997.80	881.00
998.05	885.00
998.29	904.00
998.53	896.00
998.77	923.00
999.01	934.00
999.26	921.00
999.50	899.00
999.74	897.00
999.98	920.00
1000.22	917.00
1000.47	890.00
1000.71	898.00
1000.95	948.00
1001.19	937.00
1001.43	897.00
1001.68	933.00
1001.92	922.00
1002.16	900.00
1002.40	874.00
1002.64	905.00
1002.89	908.00
1003.13	910.00
1003.37	919.00
1003.61	905.00
1003.85	927.00
1004.10	927.00
1004.34	886.00
1004.58	892.00
1004.82	949.00
1005.06	940.00
1005.30	912.00
1005.55	902.00
1005.79	936.00
1006.03	916.00
1006.27	914.00
1006.51	922.00
1006.76	920.00
1007.00	935.00
1007.24	906.00
1007.48	932.00
1007.72	957.00
1007.96	917.00
1008.21	915.00
1008.45	924.00
1008.69	946.00
1008.93	955.00
1009.17	908.00
1009.41	932.00
1009.66	945.00
1009.90	909.00
1010.14	875.00
1010.38	915.00
1010.62	934.00
1010.86	953.00
1011.10	908.00
1011.35	906.00
1011.59	918.00
1011.83	898.00
1012.07	883.00
1012.31	913.00
1012.55	929.00
1012.80	926.00
1013.04	914.00
1013.28	915.00
1013.52	923.00
1013.76	948.00
1014.00	882.00
1014.24	912.00
1014.49	936.00
1014.73	947.00
1014.97	934.00
1015.21	924.00
1015.45	946.00
1015.69	918.00
1015.93	905.00
1016.18	900.00
1016.42	950.00
1016.66	953.00
1016.90	918.00
1017.14	891.00
1017.38	900.00
1017.62	917.00
1017.87	901.00
1018.11	909.00
1018.35	912.00
1018.59	934.00
1018.83	896.00
1019.07	928.00
1019.31	926.00
1019.55	945.00
1019.80	908.00
1020.04	912.00
1020.28	927.00
1020.52	945.00
1020.76	905.00
1021.00	876.00
1021.24	922.00
1021.48	905.00
1021.73	902.00
1021.97	926.00
1022.21	929.00
1022.45	923.00
1022.69	901.00
1022.93	896.00
1023.17	922.00
1023.41	965.00
1023.65	919.00
1023.90	957.00
1024.14	955.00
1024.38	905.00
1024.62	863.00
1024.86	907.00
1025.10	933.00
1025.34	912.00
1025.58	880.00
1025.82	910.00
1026.07	949.00
1026.31	934.00
1026.55	892.00
1026.79	896.00
1027.03	928.00
1027.27	945.00
1027.51	869.00
1027.75	873.00
1027.99	895.00
1028.23	954.00
1028.47	916.00
1028.72	902.00
1028.96	922.00
1029.20	941.00
1029.44	926.00
1029.68	944.00
1029.92	940.00
1030.16	942.00
1030.40	885.00
1030.64	894.00
1030.88	904.00
1031.12	919.00
1031.37	885.00
1031.61	937.00
1031.85	946.00
1032.09	950.00
1032.33	904.00
1032.57	947.00
1032.81	898.00
1033.05	932.00
1033.29	923.00
1033.53	913.00
1033.77	976.00
1034.01	969.00
1034.25	925.00
1034.50	908.00
1034.74	925.00
1034.98	946.00
1035.22	918.00
1035.46	923.00
1035.70	956.00
1035.94	943.00
1036.18	922.00
1036.42	907.00
1036.66	901.00
1036.90	916.00
1037.14	888.00
1037.38	908.00
1037.62	952.00
1037.86	922.00
1038.10	902.00
1038.35	905.00
1038.59	937.00
1038.83	933.00
1039.07	923.00
1039.31	927.00
1039.55	911.00
1039.79	915.00
1040.03	889.00
1040.27	907.00
1040.51	954.00
1040.75	962.00
1040.99	908.00
1041.23	920.00
1041.47	928.00
1041.71	940.00
1041.95	897.00
1042.19	906.00
1042.43	937.00
1042.67	929.00
1042.91	900.00
1043.15	909.00
1043.39	955.00
1043.64	940.00
1043.88	900.00
1044.12	924.00
1044.36	987.00
1044.60	958.00
1044.84	904.00
1045.08	922.00
1045.32	932.00
1045.56	941.00
1045.80	920.00
1046.04	895.00
1046.28	933.00
1046.52	931.00
1046.76	886.00
1047.00	904.00
1047.24	955.00
1047.48	925.00
1047.72	906.00
1047.96	913.00
1048.20	937.00
1048.44	930.00
1048.68	890.00
1048.92	918.00
1049.16	942.00
1049.40	935.00
1049.64	902.00
1049.88	936.00
1050.12	953.00
1050.36	948.00
1050.60	932.00
1050.84	921.00
1051.08	913.00
1051.32	909.00
1051.56	908.00
1051.80	897.00
1052.04	915.00
1052.28	954.00
1052.52	902.00
1052.76	888.00
1053.00	905.00
1053.24	924.00
1053.48	869.00
1053.72	915.00
1053.96	926.00
1054.20	929.00
1054.44	914.00
1054.68	921.00
1054.92	928.00
1055.16	888.00
1055.40	906.00
1055.64	941.00
1055.88	957.00
1056.12	972.00
1056.36	897.00
1056.60	899.00
1056.84	948.00
1057.08	940.00
1057.32	920.00
1057.56	896.00
1057.80	904.00
1058.04	939.00
1058.28	897.00
1058.52	908.00
1058.76	941.00
1059.00	953.00
1059.24	884.00
1059.48	898.00
1059.72	931.00
1059.96	932.00
1060.20	936.00
1060.44	943.00
1060.68	969.00
1060.92	935.00
1061.16	875.00
1061.40	907.00
1061.64	925.00
1061.88	920.00
1062.11	899.00
1062.35	896.00
1062.59	926.00
1062.83	938.00
1063.07	896.00
1063.31	883.00
1063.55	912.00
1063.79	932.00
1064.03	902.00
1064.27	883.00
1064.51	927.00
1064.75	932.00
1064.99	897.00
1065.23	912.00
1065.47	904.00
1065.71	929.00
1065.95	908.00
1066.19	929.00
1066.43	939.00
1066.67	943.00
1066.91	923.00
1067.15	911.00
1067.38	914.00
1067.62	930.00
1067.86	887.00
1068.10	913.00
1068.34	961.00
1068.58	960.00
1068.82	900.00
1069.06	865.00
1069.30	930.00
1069.54	956.00
1069.78	933.00
1070.02	910.00
1070.26	948.00
1070.50	967.00
1070.74	905.00
1070.98	922.00
1071.21	941.00
1071.45	937.00
1071.69	893.00
1071.93	902.00
1072.17	939.00
1072.41	944.00
1072.65	931.00
1072.89	936.00
1073.13	930.00
1073.37	915.00
1073.61	881.00
1073.85	921.00
1074.09	917.00
1074.32	921.00
1074.56	910.00
1074.80	977.00
1075.04	1202.00
1075.28	1048.00
1075.52	930.00
1075.76	936.00
1076.00	950.00
1076.24	931.00
1076.48	928.00
1076.72	932.00
1076.96	954.00
1077.19	941.00
1077.43	899.00
1077.67	933.00
1077.91	926.00
1078.15	901.00
1078.39	898.00
1078.63	908.00
1078.87	919.00
1079.11	933.00
1079.35	882.00
1079.58	878.00
1079.82	915.00
1080.06	930.00
1080.30	904.00
1080.54	934.00
1080.78	960.00
1081.02	917.00
1081.26	909.00
1081.50	923.00
1081.74	926.00
1081.97	942.00
1082.21	916.00
1082.45	916.00
1082.69	917.00
1082.93	914.00
1083.17	917.00
1083.41	914.00
1083.65	957.00
1083.88	961.00
1084.12	918.00
1084.36	921.00
1084.60	942.00
1084.84	943.00
1085.08	892.00
1085.32	909.00
1085.56	952.00
1085.80	944.00
1086.03	900.00
1086.27	901.00
1086.51	931.00
1086.75	931.00
1086.99	902.00
1087.23	884.00
1087.47	927.00
1087.70	919.00
1087.94	898.00
1088.18	942.00
1088.42	983.00
1088.66	945.00
1088.90	887.00
1089.14	896.00
1089.38	906.00
1089.61	927.00
1089.85	914.00
1090.09	904.00
1090.33	949.00
1090.57	945.00
1090.81	868.00
1091.05	906.00
1091.28	941.00
1091.52	954.00
1091.76	904.00
1092.00	901.00
1092.24	935.00
1092.48	976.00
1092.71	897.00
1092.95	933.00
1093.19	941.00
1093.43	924.00
1093.67	901.00
1093.91	925.00
1094.15	927.00
1094.38	927.00
1094.62	890.00
1094.86	894.00
1095.10	906.00
1095.34	919.00
1095.58	895.00
1095.81	927.00
1096.05	958.00
1096.29	981.00
1096.53	900.00
1096.77	924.00
1097.01	926.00
1097.24	944.00
1097.48	891.00
1097.72	904.00
1097.96	930.00
1098.20	920.00
1098.44	871.00
1098.67	878.00
1098.91	926.00
1099.15	927.00
1099.39	885.00
1099.63	907.00
1099.86	941.00
1100.10	918.00
1100.34	917.00
1100.58	900.00
1100.82	918.00
1101.06	927.00
1101.29	899.00
1101.53	921.00
1101.77	939.00
1102.01	925.00
1102.25	917.00
1102.48	916.00
1102.72	965.00
1102.96	955.00
1103.20	892.00
1103.44	913.00
1103.67	909.00
1103.91	941.00
1104.15	896.00
1104.39	893.00
1104.63	936.00
1104.86	904.00
1105.10	894.00
1105.34	914.00
1105.58	910.00
1105.82	921.00
1106.05	898.00
1106.29	913.00
1106.53	933.00
1106.77	949.00
1107.01	876.00
1107.24	907.00
1107.48	970.00
1107.72	940.00
1107.96	878.00
1108.20	902.00
1108.43	911.00
1108.67	916.00
1108.91	903.00
1109.15	904.00
1109.39	936.00
1109.62	917.00
1109.86	877.00
1110.10	896.00
1110.34	962.00
1110.57	977.00
1110.81	911.00
1111.05	909.00
1111.29	960.00
1111.53	948.00
1111.76	902.00
1112.00	956.00
1112.24	950.00
1112.48	941.00
1112.71	887.00
1112.95	905.00
1113.19	962.00
1113.43	944.00
1113.66	885.00
1113.90	932.00
1114.14	942.00
1114.38	937.00
1114.62	883.00
1114.85	936.00
1115.09	949.00
1115.33	982.00
1115.57	918.00
1115.80	903.00
1116.04	920.00
1116.28	926.00
1116.52	899.00
1116.75	911.00
1116.99	939.00
1117.23	948.00
1117.47	938.00
1117.70	940.00
1117.94	991.00
1118.18	925.00
1118.42	905.00
1118.65	933.00
1118.89	946.00
1119.13	927.00
1119.37	893.00
1119.60	929.00
1119.84	960.00
>>>>>End Processed Spectral Data<<<<<
