SpectraSuite Data File
++++++++++++++++++++++++++++++++++++
Date: Fri Nov 29 15:19:56 CET 2024
User: student
Dark Spectrum Present: No
Reference Spectrum Present: No
Number of Sampled Component Spectra: 1
Spectrometers: HR4C155
Integration Time (usec): 100000 (HR4C155)
Spectra Averaged: 1 (HR4C155)
Boxcar Smoothing: 0 (HR4C155)
Correct for Electrical Dark: No (HR4C155)
Strobe/Lamp Enabled: No (HR4C155)
Correct for Detector Non-linearity: No (HR4C155)
Correct for Stray Light: No (HR4C155)
Number of Pixels in Processed Spectrum: 3648
>>>>>Begin Processed Spectral Data<<<<<
195.39	752.00
195.66	752.00
195.93	752.00
196.20	704.00
196.46	752.00
196.73	873.00
197.00	883.00
197.27	880.00
197.54	918.00
197.81	898.00
198.08	881.00
198.35	935.00
198.61	932.00
198.88	907.00
199.15	889.00
199.42	918.00
199.69	936.00
199.96	913.00
200.23	927.00
200.49	922.00
200.76	939.00
201.03	936.00
201.30	929.00
201.57	964.00
201.84	966.00
202.11	930.00
202.38	941.00
202.64	969.00
202.91	974.00
203.18	903.00
203.45	973.00
203.72	1057.00
203.99	976.00
204.25	964.00
204.52	942.00
204.79	966.00
205.06	981.00
205.33	931.00
205.60	945.00
205.87	994.00
206.13	981.00
206.40	947.00
206.67	930.00
206.94	971.00
207.21	981.00
207.48	947.00
207.75	971.00
208.01	997.00
208.28	997.00
208.55	943.00
208.82	940.00
209.09	945.00
209.36	989.00
209.62	958.00
209.89	968.00
210.16	1001.00
210.43	1029.00
210.70	943.00
210.97	960.00
211.23	987.00
211.50	992.00
211.77	944.00
212.04	964.00
212.31	973.00
212.58	1002.00
212.84	953.00
213.11	957.00
213.38	930.00
213.65	971.00
213.92	953.00
214.18	957.00
214.45	1001.00
214.72	991.00
214.99	937.00
215.26	950.00
215.53	943.00
215.79	977.00
216.06	969.00
216.33	976.00
216.60	938.00
216.87	974.00
217.13	913.00
217.40	916.00
217.67	978.00
217.94	1020.00
218.21	933.00
218.48	981.00
218.74	1022.00
219.01	990.00
219.28	914.00
219.55	916.00
219.82	964.00
220.08	983.00
220.35	937.00
220.62	953.00
220.89	1017.00
221.16	1041.00
221.42	961.00
221.69	952.00
221.96	981.00
222.23	994.00
222.50	998.00
222.76	983.00
223.03	964.00
223.30	957.00
223.57	941.00
223.84	924.00
224.10	948.00
224.37	978.00
224.64	918.00
224.91	940.00
225.18	983.00
225.44	977.00
225.71	969.00
225.98	983.00
226.25	985.00
226.51	988.00
226.78	945.00
227.05	946.00
227.32	973.00
227.59	964.00
227.85	971.00
228.12	971.00
228.39	1001.00
228.66	1000.00
228.92	994.00
229.19	964.00
229.46	981.00
229.73	970.00
230.00	940.00
230.26	978.00
230.53	1006.00
230.80	969.00
231.07	915.00
231.33	931.00
231.60	953.00
231.87	980.00
232.14	941.00
232.41	986.00
232.67	978.00
232.94	984.00
233.21	937.00
233.48	957.00
233.74	968.00
234.01	970.00
234.28	922.00
234.55	938.00
234.81	963.00
235.08	1006.00
235.35	933.00
235.62	934.00
235.88	956.00
236.15	986.00
236.42	955.00
236.69	965.00
236.95	986.00
237.22	957.00
237.49	941.00
237.76	939.00
238.02	995.00
238.29	1006.00
238.56	952.00
238.83	946.00
239.09	952.00
239.36	986.00
239.63	963.00
239.90	958.00
240.16	1000.00
240.43	1030.00
240.70	961.00
240.97	957.00
241.23	960.00
241.50	973.00
241.77	955.00
242.04	956.00
242.30	927.00
242.57	956.00
242.84	938.00
243.11	951.00
243.37	947.00
243.64	1011.00
243.91	958.00
244.18	956.00
244.44	935.00
244.71	958.00
244.98	961.00
245.24	947.00
245.51	983.00
245.78	995.00
246.05	931.00
246.31	953.00
246.58	989.00
246.85	961.00
247.12	956.00
247.38	966.00
247.65	975.00
247.92	988.00
248.18	942.00
248.45	946.00
248.72	953.00
248.99	973.00
249.25	922.00
249.52	945.00
249.79	979.00
250.05	992.00
250.32	964.00
250.59	953.00
250.86	938.00
251.12	956.00
251.39	917.00
251.66	959.00
251.92	1003.00
252.19	1000.00
252.46	933.00
252.73	976.00
252.99	980.00
253.26	1009.00
253.53	928.00
253.79	967.00
254.06	963.00
254.33	947.00
254.60	917.00
254.86	935.00
255.13	980.00
255.40	1009.00
255.66	942.00
255.93	973.00
256.20	1004.00
256.46	1001.00
256.73	939.00
257.00	964.00
257.26	988.00
257.53	995.00
257.80	972.00
258.07	980.00
258.33	1021.00
258.60	999.00
258.87	933.00
259.13	954.00
259.40	949.00
259.67	990.00
259.93	948.00
260.20	980.00
260.47	984.00
260.73	955.00
261.00	945.00
261.27	977.00
261.53	982.00
261.80	979.00
262.07	924.00
262.34	935.00
262.60	927.00
262.87	962.00
263.14	931.00
263.40	966.00
263.67	962.00
263.94	969.00
264.20	956.00
264.47	923.00
264.74	937.00
265.00	951.00
265.27	916.00
265.54	946.00
265.80	975.00
266.07	996.00
266.34	932.00
266.60	937.00
266.87	968.00
267.14	993.00
267.40	946.00
267.67	927.00
267.94	953.00
268.20	952.00
268.47	915.00
268.74	933.00
269.00	957.00
269.27	945.00
269.54	915.00
269.80	937.00
270.07	980.00
270.33	965.00
270.60	949.00
270.87	950.00
271.13	928.00
271.40	948.00
271.67	894.00
271.93	908.00
272.20	962.00
272.47	951.00
272.73	906.00
273.00	942.00
273.27	954.00
273.53	996.00
273.80	933.00
274.07	926.00
274.33	942.00
274.60	970.00
274.86	937.00
275.13	946.00
275.40	951.00
275.66	991.00
275.93	934.00
276.20	922.00
276.46	966.00
276.73	955.00
277.00	936.00
277.26	952.00
277.53	976.00
277.79	966.00
278.06	944.00
278.33	966.00
278.59	970.00
278.86	937.00
279.13	933.00
279.39	937.00
279.66	982.00
279.93	993.00
280.19	927.00
280.46	929.00
280.72	933.00
280.99	961.00
281.26	922.00
281.52	943.00
281.79	959.00
282.05	969.00
282.32	932.00
282.59	942.00
282.85	983.00
283.12	993.00
283.39	935.00
283.65	962.00
283.92	972.00
284.18	987.00
284.45	947.00
284.72	955.00
284.98	946.00
285.25	946.00
285.51	968.00
285.78	960.00
286.05	944.00
286.31	955.00
286.58	904.00
286.84	919.00
287.11	947.00
287.38	987.00
287.64	968.00
287.91	946.00
288.17	965.00
288.44	959.00
288.71	918.00
288.97	961.00
289.24	988.00
289.50	959.00
289.77	963.00
290.04	933.00
290.30	926.00
290.57	967.00
290.83	926.00
291.10	921.00
291.37	955.00
291.63	955.00
291.90	964.00
292.16	958.00
292.43	983.00
292.70	959.00
292.96	907.00
293.23	910.00
293.49	934.00
293.76	986.00
294.02	939.00
294.29	939.00
294.56	956.00
294.82	969.00
295.09	922.00
295.35	932.00
295.62	978.00
295.89	994.00
296.15	919.00
296.42	935.00
296.68	971.00
296.95	945.00
297.21	935.00
297.48	928.00
297.75	952.00
298.01	979.00
298.28	950.00
298.54	955.00
298.81	959.00
299.07	965.00
299.34	907.00
299.61	939.00
299.87	974.00
300.14	964.00
300.40	955.00
300.67	946.00
300.93	986.00
301.20	1006.00
301.46	932.00
301.73	954.00
302.00	967.00
302.26	941.00
302.53	943.00
302.79	948.00
303.06	969.00
303.32	1006.00
303.59	931.00
303.85	934.00
304.12	933.00
304.39	943.00
304.65	926.00
304.92	948.00
305.18	973.00
305.45	985.00
305.71	926.00
305.98	943.00
306.24	939.00
306.51	964.00
306.77	942.00
307.04	949.00
307.31	981.00
307.57	975.00
307.84	905.00
308.10	924.00
308.37	929.00
308.63	938.00
308.90	930.00
309.16	967.00
309.43	976.00
309.69	941.00
309.96	953.00
310.22	953.00
310.49	967.00
310.76	979.00
311.02	916.00
311.29	936.00
311.55	956.00
311.82	964.00
312.08	937.00
312.35	929.00
312.61	969.00
312.88	973.00
313.14	941.00
313.41	918.00
313.67	920.00
313.94	947.00
314.20	951.00
314.47	970.00
314.73	942.00
315.00	952.00
315.26	925.00
315.53	973.00
315.79	968.00
316.06	956.00
316.32	935.00
316.59	952.00
316.85	954.00
317.12	969.00
317.39	917.00
317.65	939.00
317.92	953.00
318.18	971.00
318.45	944.00
318.71	993.00
318.98	976.00
319.24	972.00
319.51	950.00
319.77	945.00
320.04	960.00
320.30	958.00
320.57	928.00
320.83	931.00
321.10	924.00
321.36	929.00
321.63	916.00
321.89	927.00
322.16	982.00
322.42	959.00
322.69	906.00
322.95	926.00
323.22	968.00
323.48	991.00
323.75	944.00
324.01	961.00
324.28	973.00
324.54	962.00
324.80	932.00
325.07	959.00
325.33	996.00
325.60	970.00
325.86	914.00
326.13	929.00
326.39	942.00
326.66	926.00
326.92	885.00
327.19	942.00
327.45	997.00
327.72	989.00
327.98	911.00
328.25	915.00
328.51	971.00
328.78	967.00
329.04	918.00
329.31	946.00
329.57	953.00
329.84	947.00
330.10	925.00
330.37	953.00
330.63	976.00
330.89	987.00
331.16	934.00
331.42	927.00
331.69	975.00
331.95	956.00
332.22	959.00
332.48	979.00
332.75	971.00
333.01	931.00
333.28	918.00
333.54	933.00
333.81	937.00
334.07	967.00
334.34	949.00
334.60	955.00
334.86	1003.00
335.13	998.00
335.39	944.00
335.66	943.00
335.92	963.00
336.19	966.00
336.45	887.00
336.72	917.00
336.98	928.00
337.24	969.00
337.51	927.00
337.77	949.00
338.04	947.00
338.30	941.00
338.57	910.00
338.83	924.00
339.10	959.00
339.36	968.00
339.63	930.00
339.89	903.00
340.15	943.00
340.42	972.00
340.68	955.00
340.95	960.00
341.21	955.00
341.48	957.00
341.74	915.00
342.00	909.00
342.27	946.00
342.53	972.00
342.80	937.00
343.06	928.00
343.33	953.00
343.59	974.00
343.85	921.00
344.12	952.00
344.38	1011.00
344.65	995.00
344.91	933.00
345.18	923.00
345.44	935.00
345.70	942.00
345.97	909.00
346.23	947.00
346.50	974.00
346.76	957.00
347.03	959.00
347.29	945.00
347.55	954.00
347.82	948.00
348.08	905.00
348.35	921.00
348.61	989.00
348.87	979.00
349.14	917.00
349.40	920.00
349.67	961.00
349.93	945.00
350.20	926.00
350.46	947.00
350.72	984.00
350.99	947.00
351.25	933.00
351.52	932.00
351.78	972.00
352.04	976.00
352.31	966.00
352.57	953.00
352.84	949.00
353.10	946.00
353.36	933.00
353.63	923.00
353.89	934.00
354.16	948.00
354.42	937.00
354.68	940.00
354.95	982.00
355.21	986.00
355.48	910.00
355.74	959.00
356.00	992.00
356.27	999.00
356.53	928.00
356.80	934.00
357.06	963.00
357.32	973.00
357.59	958.00
357.85	961.00
358.11	987.00
358.38	977.00
358.64	960.00
358.91	936.00
359.17	950.00
359.43	969.00
359.70	951.00
359.96	943.00
360.22	971.00
360.49	944.00
360.75	932.00
361.02	915.00
361.28	934.00
361.54	961.00
361.81	907.00
362.07	931.00
362.33	956.00
362.60	941.00
362.86	925.00
363.13	934.00
363.39	964.00
363.65	972.00
363.92	902.00
364.18	898.00
364.44	955.00
364.71	968.00
364.97	929.00
365.24	933.00
365.50	965.00
365.76	976.00
366.03	942.00
366.29	956.00
366.55	977.00
366.82	944.00
367.08	901.00
367.34	936.00
367.61	987.00
367.87	968.00
368.13	946.00
368.40	940.00
368.66	1006.00
368.93	974.00
369.19	905.00
369.45	920.00
369.72	944.00
369.98	948.00
370.24	904.00
370.51	924.00
370.77	946.00
371.03	956.00
371.30	947.00
371.56	964.00
371.82	957.00
372.09	964.00
372.35	944.00
372.61	950.00
372.88	957.00
373.14	970.00
373.40	938.00
373.67	936.00
373.93	959.00
374.19	989.00
374.46	928.00
374.72	915.00
374.98	948.00
375.25	962.00
375.51	946.00
375.77	961.00
376.04	962.00
376.30	955.00
376.56	917.00
376.83	930.00
377.09	970.00
377.35	970.00
377.62	947.00
377.88	942.00
378.14	953.00
378.41	957.00
378.67	925.00
378.93	937.00
379.20	985.00
379.46	940.00
379.72	911.00
379.99	931.00
380.25	918.00
380.51	921.00
380.77	926.00
381.04	946.00
381.30	979.00
381.56	995.00
381.83	942.00
382.09	935.00
382.35	940.00
382.62	984.00
382.88	946.00
383.14	931.00
383.41	936.00
383.67	929.00
383.93	936.00
384.20	940.00
384.46	966.00
384.72	978.00
384.98	914.00
385.25	976.00
385.51	972.00
385.77	951.00
386.04	922.00
386.30	915.00
386.56	959.00
386.82	996.00
387.09	943.00
387.35	983.00
387.61	1034.00
387.88	981.00
388.14	940.00
388.40	945.00
388.67	948.00
388.93	957.00
389.19	945.00
389.45	933.00
389.72	958.00
389.98	969.00
390.24	937.00
390.51	929.00
390.77	977.00
391.03	987.00
391.29	918.00
391.56	936.00
391.82	977.00
392.08	993.00
392.35	943.00
392.61	934.00
392.87	955.00
393.13	978.00
393.40	940.00
393.66	940.00
393.92	961.00
394.18	968.00
394.45	920.00
394.71	927.00
394.97	946.00
395.24	916.00
395.50	913.00
395.76	951.00
396.02	975.00
396.29	959.00
396.55	911.00
396.81	880.00
397.07	927.00
397.34	930.00
397.60	907.00
397.86	914.00
398.12	948.00
398.39	979.00
398.65	920.00
398.91	915.00
399.17	941.00
399.44	901.00
399.70	886.00
399.96	913.00
400.22	942.00
400.49	993.00
400.75	941.00
401.01	924.00
401.27	941.00
401.54	976.00
401.80	930.00
402.06	915.00
402.32	965.00
402.59	952.00
402.85	929.00
403.11	949.00
403.37	931.00
403.64	977.00
403.90	924.00
404.16	927.00
404.42	937.00
404.69	933.00
404.95	903.00
405.21	889.00
405.47	939.00
405.74	969.00
406.00	916.00
406.26	910.00
406.52	947.00
406.79	974.00
407.05	926.00
407.31	930.00
407.57	930.00
407.83	950.00
408.10	906.00
408.36	903.00
408.62	944.00
408.88	939.00
409.15	921.00
409.41	873.00
409.67	908.00
409.93	982.00
410.20	947.00
410.46	922.00
410.72	936.00
410.98	948.00
411.24	922.00
411.51	937.00
411.77	936.00
412.03	944.00
412.29	955.00
412.55	963.00
412.82	949.00
413.08	969.00
413.34	958.00
413.60	930.00
413.87	954.00
414.13	959.00
414.39	928.00
414.65	955.00
414.91	949.00
415.18	920.00
415.44	890.00
415.70	914.00
415.96	947.00
416.22	951.00
416.49	912.00
416.75	914.00
417.01	950.00
417.27	944.00
417.53	919.00
417.80	953.00
418.06	985.00
418.32	978.00
418.58	921.00
418.84	915.00
419.11	940.00
419.37	943.00
419.63	912.00
419.89	910.00
420.15	940.00
420.42	936.00
420.68	911.00
420.94	920.00
421.20	942.00
421.46	925.00
421.72	952.00
421.99	947.00
422.25	958.00
422.51	942.00
422.77	923.00
423.03	961.00
423.30	954.00
423.56	963.00
423.82	950.00
424.08	936.00
424.34	946.00
424.60	952.00
424.87	924.00
425.13	920.00
425.39	932.00
425.65	949.00
425.91	921.00
426.18	945.00
426.44	944.00
426.70	921.00
426.96	886.00
427.22	886.00
427.48	930.00
427.75	944.00
428.01	891.00
428.27	914.00
428.53	962.00
428.79	932.00
429.05	919.00
429.32	935.00
429.58	977.00
429.84	924.00
430.10	914.00
430.36	938.00
430.62	977.00
430.88	966.00
431.15	939.00
431.41	947.00
431.67	960.00
431.93	934.00
432.19	890.00
432.45	910.00
432.72	941.00
432.98	955.00
433.24	949.00
433.50	1015.00
433.76	933.00
434.02	934.00
434.28	915.00
434.55	918.00
434.81	951.00
435.07	956.00
435.33	894.00
435.59	913.00
435.85	936.00
436.11	945.00
436.38	895.00
436.64	931.00
436.90	951.00
437.16	933.00
437.42	917.00
437.68	929.00
437.94	949.00
438.21	955.00
438.47	963.00
438.73	950.00
438.99	953.00
439.25	956.00
439.51	919.00
439.77	938.00
440.03	930.00
440.30	955.00
440.56	923.00
440.82	953.00
441.08	960.00
441.34	956.00
441.60	911.00
441.86	929.00
442.12	959.00
442.39	947.00
442.65	917.00
442.91	920.00
443.17	926.00
443.43	946.00
443.69	939.00
443.95	913.00
444.21	926.00
444.47	955.00
444.74	917.00
445.00	942.00
445.26	940.00
445.52	942.00
445.78	900.00
446.04	927.00
446.30	974.00
446.56	958.00
446.82	917.00
447.09	930.00
447.35	982.00
447.61	948.00
447.87	927.00
448.13	930.00
448.39	990.00
448.65	968.00
448.91	919.00
449.17	918.00
449.43	936.00
449.70	948.00
449.96	934.00
450.22	924.00
450.48	950.00
450.74	987.00
451.00	926.00
451.26	910.00
451.52	947.00
451.78	948.00
452.04	906.00
452.31	945.00
452.57	957.00
452.83	938.00
453.09	910.00
453.35	921.00
453.61	934.00
453.87	934.00
454.13	955.00
454.39	956.00
454.65	991.00
454.91	986.00
455.17	929.00
455.44	937.00
455.70	967.00
455.96	962.00
456.22	913.00
456.48	933.00
456.74	941.00
457.00	917.00
457.26	882.00
457.52	915.00
457.78	927.00
458.04	937.00
458.30	908.00
458.56	917.00
458.82	929.00
459.09	916.00
459.35	873.00
459.61	897.00
459.87	951.00
460.13	973.00
460.39	933.00
460.65	901.00
460.91	957.00
461.17	926.00
461.43	901.00
461.69	925.00
461.95	946.00
462.21	941.00
462.47	940.00
462.73	954.00
462.99	975.00
463.26	968.00
463.52	900.00
463.78	891.00
464.04	927.00
464.30	939.00
464.56	908.00
464.82	938.00
465.08	985.00
465.34	990.00
465.60	942.00
465.86	920.00
466.12	932.00
466.38	914.00
466.64	910.00
466.90	911.00
467.16	953.00
467.42	968.00
467.68	908.00
467.94	938.00
468.20	980.00
468.46	951.00
468.72	908.00
468.98	930.00
469.25	948.00
469.51	917.00
469.77	924.00
470.03	932.00
470.29	936.00
470.55	944.00
470.81	925.00
471.07	926.00
471.33	941.00
471.59	956.00
471.85	934.00
472.11	934.00
472.37	955.00
472.63	950.00
472.89	939.00
473.15	929.00
473.41	943.00
473.67	944.00
473.93	901.00
474.19	897.00
474.45	916.00
474.71	930.00
474.97	894.00
475.23	903.00
475.49	929.00
475.75	932.00
476.01	924.00
476.27	964.00
476.53	982.00
476.79	966.00
477.05	940.00
477.31	923.00
477.57	953.00
477.83	936.00
478.09	884.00
478.35	926.00
478.61	968.00
478.87	931.00
479.13	909.00
479.39	969.00
479.65	984.00
479.91	966.00
480.17	942.00
480.43	966.00
480.69	945.00
480.95	964.00
481.21	927.00
481.47	939.00
481.73	934.00
481.99	925.00
482.25	914.00
482.51	902.00
482.77	957.00
483.03	950.00
483.29	930.00
483.55	928.00
483.81	961.00
484.07	966.00
484.33	921.00
484.59	912.00
484.85	964.00
485.11	968.00
485.37	909.00
485.63	931.00
485.89	944.00
486.15	933.00
486.41	896.00
486.67	907.00
486.93	938.00
487.19	940.00
487.45	910.00
487.71	925.00
487.97	972.00
488.23	955.00
488.49	900.00
488.75	913.00
489.01	954.00
489.27	976.00
489.53	916.00
489.79	916.00
490.05	940.00
490.31	969.00
490.57	944.00
490.83	982.00
491.08	945.00
491.34	925.00
491.60	900.00
491.86	934.00
492.12	963.00
492.38	963.00
492.64	909.00
492.90	911.00
493.16	953.00
493.42	933.00
493.68	901.00
493.94	922.00
494.20	926.00
494.46	948.00
494.72	904.00
494.98	905.00
495.24	927.00
495.50	949.00
495.76	929.00
496.02	939.00
496.28	941.00
496.54	963.00
496.80	933.00
497.05	904.00
497.31	946.00
497.57	948.00
497.83	920.00
498.09	945.00
498.35	980.00
498.61	964.00
498.87	934.00
499.13	935.00
499.39	951.00
499.65	932.00
499.91	919.00
500.17	901.00
500.43	997.00
500.69	1026.00
500.95	922.00
501.20	959.00
501.46	962.00
501.72	987.00
501.98	967.00
502.24	956.00
502.50	964.00
502.76	928.00
503.02	930.00
503.28	933.00
503.54	982.00
503.80	972.00
504.06	932.00
504.32	969.00
504.58	959.00
504.83	951.00
505.09	902.00
505.35	945.00
505.61	945.00
505.87	947.00
506.13	933.00
506.39	922.00
506.65	957.00
506.91	984.00
507.17	917.00
507.43	902.00
507.68	940.00
507.94	971.00
508.20	906.00
508.46	913.00
508.72	965.00
508.98	969.00
509.24	910.00
509.50	940.00
509.76	940.00
510.02	935.00
510.28	919.00
510.53	942.00
510.79	966.00
511.05	962.00
511.31	921.00
511.57	931.00
511.83	943.00
512.09	970.00
512.35	918.00
512.61	943.00
512.87	951.00
513.12	968.00
513.38	917.00
513.64	941.00
513.90	968.00
514.16	991.00
514.42	941.00
514.68	937.00
514.94	956.00
515.20	945.00
515.45	916.00
515.71	934.00
515.97	943.00
516.23	942.00
516.49	927.00
516.75	928.00
517.01	954.00
517.27	931.00
517.53	918.00
517.78	930.00
518.04	940.00
518.30	919.00
518.56	909.00
518.82	951.00
519.08	986.00
519.34	928.00
519.60	929.00
519.85	924.00
520.11	953.00
520.37	958.00
520.63	936.00
520.89	952.00
521.15	952.00
521.41	938.00
521.66	912.00
521.92	917.00
522.18	949.00
522.44	962.00
522.70	940.00
522.96	914.00
523.22	941.00
523.48	937.00
523.73	913.00
523.99	933.00
524.25	988.00
524.51	977.00
524.77	919.00
525.03	919.00
525.29	945.00
525.54	966.00
525.80	927.00
526.06	914.00
526.32	934.00
526.58	934.00
526.84	904.00
527.09	901.00
527.35	927.00
527.61	943.00
527.87	900.00
528.13	935.00
528.39	933.00
528.65	950.00
528.90	899.00
529.16	906.00
529.42	915.00
529.68	907.00
529.94	894.00
530.20	917.00
530.45	919.00
530.71	933.00
530.97	899.00
531.23	933.00
531.49	956.00
531.75	930.00
532.00	916.00
532.26	905.00
532.52	946.00
532.78	934.00
533.04	914.00
533.30	920.00
533.55	926.00
533.81	932.00
534.07	908.00
534.33	911.00
534.59	951.00
534.85	954.00
535.10	917.00
535.36	902.00
535.62	944.00
535.88	927.00
536.14	889.00
536.39	914.00
536.65	952.00
536.91	953.00
537.17	907.00
537.43	924.00
537.69	973.00
537.94	944.00
538.20	888.00
538.46	933.00
538.72	947.00
538.98	937.00
539.23	887.00
539.49	909.00
539.75	952.00
540.01	951.00
540.27	914.00
540.52	954.00
540.78	952.00
541.04	954.00
541.30	902.00
541.56	893.00
541.81	969.00
542.07	1012.00
542.33	941.00
542.59	940.00
542.85	936.00
543.10	944.00
543.36	910.00
543.62	934.00
543.88	938.00
544.14	930.00
544.39	907.00
544.65	926.00
544.91	989.00
545.17	926.00
545.43	909.00
545.68	916.00
545.94	938.00
546.20	962.00
546.46	916.00
546.71	909.00
546.97	923.00
547.23	948.00
547.49	904.00
547.75	890.00
548.00	932.00
548.26	977.00
548.52	926.00
548.78	910.00
549.03	923.00
549.29	926.00
549.55	891.00
549.81	919.00
550.07	970.00
550.32	961.00
550.58	906.00
550.84	933.00
551.10	940.00
551.35	935.00
551.61	905.00
551.87	928.00
552.13	945.00
552.39	930.00
552.64	893.00
552.90	909.00
553.16	926.00
553.42	925.00
553.67	902.00
553.93	919.00
554.19	965.00
554.45	1003.00
554.70	933.00
554.96	910.00
555.22	947.00
555.48	971.00
555.73	915.00
555.99	930.00
556.25	940.00
556.51	929.00
556.76	900.00
557.02	923.00
557.28	965.00
557.54	931.00
557.79	914.00
558.05	958.00
558.31	924.00
558.57	932.00
558.82	903.00
559.08	889.00
559.34	908.00
559.60	949.00
559.85	914.00
560.11	923.00
560.37	929.00
560.63	915.00
560.88	901.00
561.14	918.00
561.40	960.00
561.66	926.00
561.91	920.00
562.17	940.00
562.43	950.00
562.68	962.00
562.94	942.00
563.20	944.00
563.46	956.00
563.71	972.00
563.97	930.00
564.23	934.00
564.49	954.00
564.74	935.00
565.00	912.00
565.26	915.00
565.51	934.00
565.77	921.00
566.03	900.00
566.29	931.00
566.54	920.00
566.80	932.00
567.06	910.00
567.31	933.00
567.57	971.00
567.83	931.00
568.09	919.00
568.34	908.00
568.60	906.00
568.86	938.00
569.11	938.00
569.37	914.00
569.63	934.00
569.89	958.00
570.14	890.00
570.40	900.00
570.66	940.00
570.91	929.00
571.17	915.00
571.43	938.00
571.69	959.00
571.94	971.00
572.20	904.00
572.46	919.00
572.71	951.00
572.97	935.00
573.23	909.00
573.48	925.00
573.74	934.00
574.00	949.00
574.26	904.00
574.51	909.00
574.77	953.00
575.03	946.00
575.28	918.00
575.54	919.00
575.80	921.00
576.05	952.00
576.31	902.00
576.57	902.00
576.82	957.00
577.08	949.00
577.34	909.00
577.59	936.00
577.85	955.00
578.11	920.00
578.37	893.00
578.62	901.00
578.88	956.00
579.14	962.00
579.39	910.00
579.65	933.00
579.91	947.00
580.16	951.00
580.42	933.00
580.68	929.00
580.93	951.00
581.19	936.00
581.45	896.00
581.70	925.00
581.96	941.00
582.22	965.00
582.47	919.00
582.73	913.00
582.99	943.00
583.24	940.00
583.50	891.00
583.76	918.00
584.01	954.00
584.27	976.00
584.53	926.00
584.78	936.00
585.04	936.00
585.30	956.00
585.55	942.00
585.81	925.00
586.07	966.00
586.32	953.00
586.58	912.00
586.83	913.00
587.09	946.00
587.35	929.00
587.60	899.00
587.86	921.00
588.12	934.00
588.37	960.00
588.63	926.00
588.89	945.00
589.14	973.00
589.40	956.00
589.66	908.00
589.91	926.00
590.17	953.00
590.43	906.00
590.68	914.00
590.94	919.00
591.19	939.00
591.45	943.00
591.71	927.00
591.96	937.00
592.22	949.00
592.48	962.00
592.73	910.00
592.99	929.00
593.25	970.00
593.50	965.00
593.76	922.00
594.01	937.00
594.27	966.00
594.53	957.00
594.78	924.00
595.04	937.00
595.30	951.00
595.55	948.00
595.81	909.00
596.06	944.00
596.32	972.00
596.58	958.00
596.83	913.00
597.09	957.00
597.35	978.00
597.60	954.00
597.86	920.00
598.11	920.00
598.37	973.00
598.63	957.00
598.88	929.00
599.14	915.00
599.39	973.00
599.65	948.00
599.91	890.00
600.16	923.00
600.42	959.00
600.67	975.00
600.93	934.00
601.19	943.00
601.44	1033.00
601.70	984.00
601.95	939.00
602.21	955.00
602.47	953.00
602.72	954.00
602.98	928.00
603.23	932.00
603.49	977.00
603.75	995.00
604.00	953.00
604.26	946.00
604.51	952.00
604.77	997.00
605.03	938.00
605.28	939.00
605.54	994.00
605.79	1020.00
606.05	941.00
606.31	957.00
606.56	970.00
606.82	995.00
607.07	968.00
607.33	987.00
607.59	987.00
607.84	970.00
608.10	936.00
608.35	974.00
608.61	981.00
608.86	984.00
609.12	965.00
609.38	997.00
609.63	1016.00
609.89	1011.00
610.14	956.00
610.40	970.00
610.65	1014.00
610.91	1015.00
611.17	977.00
611.42	1002.00
611.68	1031.00
611.93	1052.00
612.19	1021.00
612.44	1025.00
612.70	1040.00
612.96	1017.00
613.21	991.00
613.47	1000.00
613.72	1027.00
613.98	1058.00
614.23	1014.00
614.49	1045.00
614.75	1086.00
615.00	1058.00
615.26	1025.00
615.51	1006.00
615.77	1050.00
616.02	1088.00
616.28	1054.00
616.53	1076.00
616.79	1097.00
617.05	1073.00
617.30	1060.00
617.56	1073.00
617.81	1122.00
618.07	1156.00
618.32	1164.00
618.58	1179.00
618.83	1185.00
619.09	1176.00
619.34	1142.00
619.60	1127.00
619.86	1173.00
620.11	1220.00
620.37	1209.00
620.62	1218.00
620.88	1186.00
621.13	1205.00
621.39	1214.00
621.64	1259.00
621.90	1312.00
622.15	1308.00
622.41	1289.00
622.66	1339.00
622.92	1355.00
623.18	1362.00
623.43	1280.00
623.69	1305.00
623.94	1363.00
624.20	1373.00
624.45	1340.00
624.71	1378.00
624.96	1444.00
625.22	1495.00
625.47	1486.00
625.73	1554.00
625.98	1582.00
626.24	1541.00
626.49	1526.00
626.75	1578.00
627.00	1676.00
627.26	1680.00
627.51	1614.00
627.77	1695.00
628.02	1766.00
628.28	1796.00
628.53	1732.00
628.79	1861.00
629.05	1959.00
629.30	2080.00
629.56	2166.00
629.81	2144.00
630.07	2191.00
630.32	2210.00
630.58	2191.00
630.83	2249.00
631.09	2320.00
631.34	2373.00
631.60	2415.00
631.85	2504.00
632.11	2618.00
632.36	2661.00
632.62	2727.00
632.87	2863.00
633.13	2847.00
633.38	2719.00
633.64	2709.00
633.89	3092.00
634.15	3677.00
634.40	3727.00
634.66	3331.00
634.91	3423.00
635.17	3609.00
635.42	3765.00
635.68	3827.00
635.93	3931.00
636.18	4212.00
636.44	4297.00
636.69	4021.00
636.95	3825.00
637.20	3906.00
637.46	4012.00
637.71	4112.00
637.97	4230.00
638.22	3989.00
638.48	3729.00
638.73	3700.00
638.99	3846.00
639.24	4046.00
639.50	3948.00
639.75	4250.00
640.01	4067.00
640.26	3390.00
640.52	2996.00
640.77	3065.00
641.03	3371.00
641.28	3637.00
641.54	3596.00
641.79	3152.00
642.04	2901.00
642.30	2744.00
642.55	2719.00
642.81	2776.00
643.06	2781.00
643.32	2609.00
643.57	2397.00
643.83	2359.00
644.08	2449.00
644.34	2583.00
644.59	2658.00
644.85	2592.00
645.10	2396.00
645.35	2221.00
645.61	2136.00
645.86	2071.00
646.12	1966.00
646.37	1891.00
646.63	1836.00
646.88	1762.00
647.14	1727.00
647.39	1719.00
647.65	1751.00
647.90	1684.00
648.15	1693.00
648.41	1587.00
648.66	1509.00
648.92	1425.00
649.17	1475.00
649.43	1490.00
649.68	1414.00
649.94	1362.00
650.19	1291.00
650.44	1277.00
650.70	1270.00
650.95	1217.00
651.21	1223.00
651.46	1224.00
651.72	1192.00
651.97	1164.00
652.23	1156.00
652.48	1155.00
652.73	1157.00
652.99	1123.00
653.24	1144.00
653.50	1163.00
653.75	1160.00
654.01	1092.00
654.26	1096.00
654.51	1098.00
654.77	1102.00
655.02	1070.00
655.28	1042.00
655.53	1044.00
655.79	1053.00
656.04	1039.00
656.29	1017.00
656.55	1031.00
656.80	1055.00
657.06	979.00
657.31	972.00
657.56	1006.00
657.82	1002.00
658.07	961.00
658.33	998.00
658.58	1000.00
658.84	1027.00
659.09	998.00
659.34	982.00
659.60	995.00
659.85	994.00
660.11	954.00
660.36	961.00
660.61	967.00
660.87	956.00
661.12	935.00
661.38	964.00
661.63	978.00
661.88	983.00
662.14	976.00
662.39	962.00
662.65	1001.00
662.90	1021.00
663.15	940.00
663.41	949.00
663.66	1006.00
663.92	1004.00
664.17	941.00
664.42	964.00
664.68	973.00
664.93	962.00
665.19	934.00
665.44	932.00
665.69	951.00
665.95	958.00
666.20	914.00
666.45	964.00
666.71	960.00
666.96	952.00
667.22	918.00
667.47	937.00
667.72	953.00
667.98	952.00
668.23	923.00
668.49	956.00
668.74	967.00
668.99	954.00
669.25	909.00
669.50	909.00
669.75	946.00
670.01	956.00
670.26	892.00
670.52	922.00
670.77	966.00
671.02	951.00
671.28	915.00
671.53	938.00
671.78	948.00
672.04	953.00
672.29	917.00
672.54	924.00
672.80	944.00
673.05	963.00
673.31	916.00
673.56	948.00
673.81	982.00
674.07	957.00
674.32	920.00
674.57	924.00
674.83	947.00
675.08	961.00
675.33	937.00
675.59	954.00
675.84	968.00
676.09	929.00
676.35	917.00
676.60	933.00
676.86	934.00
677.11	979.00
677.36	927.00
677.62	944.00
677.87	969.00
678.12	982.00
678.38	919.00
678.63	933.00
678.88	955.00
679.14	974.00
679.39	898.00
679.64	915.00
679.90	920.00
680.15	938.00
680.40	940.00
680.66	920.00
680.91	949.00
681.16	946.00
681.42	907.00
681.67	925.00
681.92	933.00
682.18	981.00
682.43	920.00
682.68	918.00
682.94	930.00
683.19	934.00
683.44	909.00
683.70	936.00
683.95	955.00
684.20	947.00
684.46	935.00
684.71	938.00
684.96	926.00
685.22	961.00
685.47	928.00
685.72	932.00
685.98	959.00
686.23	921.00
686.48	916.00
686.74	939.00
686.99	962.00
687.24	924.00
687.50	899.00
687.75	919.00
688.00	924.00
688.25	917.00
688.51	921.00
688.76	934.00
689.01	903.00
689.27	909.00
689.52	873.00
689.77	916.00
690.03	917.00
690.28	934.00
690.53	926.00
690.79	935.00
691.04	929.00
691.29	947.00
691.54	869.00
691.80	916.00
692.05	934.00
692.30	942.00
692.56	906.00
692.81	926.00
693.06	914.00
693.32	912.00
693.57	910.00
693.82	925.00
694.07	940.00
694.33	943.00
694.58	895.00
694.83	932.00
695.09	916.00
695.34	959.00
695.59	939.00
695.84	927.00
696.10	967.00
696.35	964.00
696.60	887.00
696.86	913.00
697.11	957.00
697.36	931.00
697.61	889.00
697.87	933.00
698.12	930.00
698.37	954.00
698.63	931.00
698.88	904.00
699.13	934.00
699.38	939.00
699.64	886.00
699.89	912.00
700.14	920.00
700.39	922.00
700.65	904.00
700.90	939.00
701.15	933.00
701.40	944.00
701.66	896.00
701.91	914.00
702.16	925.00
702.42	932.00
702.67	884.00
702.92	909.00
703.17	919.00
703.43	926.00
703.68	921.00
703.93	948.00
704.18	978.00
704.44	950.00
704.69	918.00
704.94	930.00
705.19	927.00
705.45	953.00
705.70	924.00
705.95	919.00
706.20	923.00
706.46	956.00
706.71	920.00
706.96	915.00
707.21	924.00
707.47	944.00
707.72	907.00
707.97	932.00
708.22	970.00
708.48	964.00
708.73	909.00
708.98	898.00
709.23	927.00
709.49	930.00
709.74	910.00
709.99	913.00
710.24	924.00
710.50	949.00
710.75	946.00
711.00	946.00
711.25	939.00
711.50	927.00
711.76	900.00
712.01	905.00
712.26	907.00
712.51	925.00
712.77	895.00
713.02	921.00
713.27	919.00
713.52	917.00
713.78	898.00
714.03	926.00
714.28	913.00
714.53	940.00
714.78	899.00
715.04	924.00
715.29	922.00
715.54	934.00
715.79	887.00
716.05	923.00
716.30	949.00
716.55	945.00
716.80	913.00
717.05	935.00
717.31	933.00
717.56	947.00
717.81	917.00
718.06	911.00
718.31	903.00
718.57	943.00
718.82	913.00
719.07	950.00
719.32	926.00
719.57	949.00
719.83	901.00
720.08	931.00
720.33	922.00
720.58	925.00
720.83	892.00
721.09	944.00
721.34	928.00
721.59	966.00
721.84	914.00
722.09	928.00
722.35	945.00
722.60	933.00
722.85	887.00
723.10	916.00
723.35	905.00
723.61	950.00
723.86	931.00
724.11	918.00
724.36	913.00
724.61	910.00
724.87	914.00
725.12	887.00
725.37	907.00
725.62	914.00
725.87	905.00
726.12	904.00
726.38	921.00
726.63	943.00
726.88	913.00
727.13	936.00
727.38	925.00
727.64	946.00
727.89	912.00
728.14	919.00
728.39	918.00
728.64	946.00
728.89	903.00
729.15	926.00
729.40	926.00
729.65	946.00
729.90	893.00
730.15	922.00
730.40	930.00
730.66	921.00
730.91	890.00
731.16	917.00
731.41	937.00
731.66	945.00
731.91	924.00
732.17	946.00
732.42	952.00
732.67	921.00
732.92	895.00
733.17	920.00
733.42	927.00
733.68	932.00
733.93	903.00
734.18	916.00
734.43	901.00
734.68	913.00
734.93	894.00
735.18	946.00
735.44	949.00
735.69	935.00
735.94	880.00
736.19	919.00
736.44	927.00
736.69	967.00
736.95	902.00
737.20	934.00
737.45	941.00
737.70	933.00
737.95	901.00
738.20	934.00
738.45	944.00
738.70	935.00
738.96	921.00
739.21	932.00
739.46	957.00
739.71	958.00
739.96	921.00
740.21	947.00
740.46	991.00
740.72	976.00
740.97	912.00
741.22	948.00
741.47	925.00
741.72	941.00
741.97	901.00
742.22	911.00
742.47	928.00
742.73	930.00
742.98	890.00
743.23	895.00
743.48	898.00
743.73	925.00
743.98	920.00
744.23	919.00
744.48	940.00
744.74	933.00
744.99	900.00
745.24	931.00
745.49	927.00
745.74	950.00
745.99	909.00
746.24	910.00
746.49	914.00
746.74	933.00
747.00	929.00
747.25	920.00
747.50	896.00
747.75	897.00
748.00	880.00
748.25	922.00
748.50	916.00
748.75	944.00
749.00	940.00
749.26	948.00
749.51	925.00
749.76	925.00
750.01	913.00
750.26	926.00
750.51	957.00
750.76	947.00
751.01	906.00
751.26	915.00
751.51	936.00
751.77	954.00
752.02	928.00
752.27	916.00
752.52	923.00
752.77	931.00
753.02	912.00
753.27	941.00
753.52	920.00
753.77	938.00
754.02	909.00
754.27	924.00
754.52	897.00
754.78	937.00
755.03	931.00
755.28	921.00
755.53	943.00
755.78	928.00
756.03	884.00
756.28	925.00
756.53	942.00
756.78	949.00
757.03	914.00
757.28	924.00
757.53	938.00
757.79	897.00
758.04	885.00
758.29	956.00
758.54	947.00
758.79	940.00
759.04	892.00
759.29	900.00
759.54	907.00
759.79	924.00
760.04	920.00
760.29	914.00
760.54	926.00
760.79	937.00
761.04	895.00
761.29	917.00
761.55	919.00
761.80	933.00
762.05	895.00
762.30	925.00
762.55	934.00
762.80	936.00
763.05	913.00
763.30	939.00
763.55	944.00
763.80	946.00
764.05	896.00
764.30	928.00
764.55	951.00
764.80	931.00
765.05	887.00
765.30	933.00
765.55	934.00
765.80	925.00
766.05	890.00
766.30	937.00
766.56	929.00
766.81	932.00
767.06	928.00
767.31	914.00
767.56	901.00
767.81	924.00
768.06	895.00
768.31	938.00
768.56	945.00
768.81	993.00
769.06	906.00
769.31	932.00
769.56	912.00
769.81	954.00
770.06	904.00
770.31	919.00
770.56	929.00
770.81	914.00
771.06	901.00
771.31	935.00
771.56	921.00
771.81	929.00
772.06	896.00
772.31	940.00
772.56	944.00
772.81	954.00
773.06	908.00
773.31	932.00
773.56	928.00
773.81	894.00
774.06	895.00
774.31	914.00
774.56	933.00
774.81	950.00
775.06	936.00
775.31	953.00
775.56	938.00
775.81	927.00
776.06	890.00
776.31	915.00
776.56	921.00
776.82	925.00
777.07	895.00
777.32	916.00
777.57	925.00
777.82	977.00
778.07	921.00
778.32	921.00
778.57	940.00
778.82	949.00
779.07	909.00
779.32	919.00
779.57	902.00
779.82	917.00
780.07	905.00
780.32	938.00
780.56	934.00
780.81	960.00
781.06	893.00
781.31	906.00
781.56	954.00
781.81	937.00
782.06	913.00
782.31	941.00
782.56	926.00
782.81	964.00
783.06	916.00
783.31	925.00
783.56	907.00
783.81	937.00
784.06	905.00
784.31	910.00
784.56	899.00
784.81	962.00
785.06	921.00
785.31	913.00
785.56	906.00
785.81	907.00
786.06	896.00
786.31	909.00
786.56	897.00
786.81	921.00
787.06	917.00
787.31	919.00
787.56	924.00
787.81	892.00
788.06	871.00
788.31	933.00
788.56	927.00
788.81	966.00
789.06	929.00
789.31	931.00
789.56	917.00
789.81	933.00
790.06	903.00
790.31	951.00
790.56	905.00
790.80	917.00
791.05	898.00
791.30	902.00
791.55	914.00
791.80	922.00
792.05	908.00
792.30	903.00
792.55	897.00
792.80	907.00
793.05	878.00
793.30	899.00
793.55	929.00
793.80	940.00
794.05	888.00
794.30	906.00
794.55	915.00
794.80	947.00
795.05	893.00
795.30	899.00
795.54	889.00
795.79	929.00
796.04	894.00
796.29	915.00
796.54	915.00
796.79	934.00
797.04	916.00
797.29	931.00
797.54	952.00
797.79	931.00
798.04	910.00
798.29	891.00
798.54	887.00
798.79	904.00
799.04	888.00
799.29	918.00
799.53	928.00
799.78	923.00
800.03	904.00
800.28	900.00
800.53	896.00
800.78	945.00
801.03	907.00
801.28	909.00
801.53	909.00
801.78	942.00
802.03	902.00
802.28	927.00
802.52	948.00
802.77	973.00
803.02	946.00
803.27	929.00
803.52	893.00
803.77	928.00
804.02	904.00
804.27	940.00
804.52	921.00
804.77	934.00
805.02	912.00
805.27	938.00
805.51	918.00
805.76	949.00
806.01	917.00
806.26	918.00
806.51	927.00
806.76	958.00
807.01	922.00
807.26	897.00
807.51	937.00
807.76	909.00
808.00	892.00
808.25	927.00
808.50	925.00
808.75	914.00
809.00	905.00
809.25	913.00
809.50	923.00
809.75	950.00
810.00	922.00
810.24	912.00
810.49	876.00
810.74	900.00
810.99	898.00
811.24	925.00
811.49	944.00
811.74	955.00
811.99	886.00
812.24	933.00
812.48	899.00
812.73	891.00
812.98	860.00
813.23	896.00
813.48	916.00
813.73	914.00
813.98	849.00
814.23	898.00
814.47	892.00
814.72	908.00
814.97	881.00
815.22	925.00
815.47	904.00
815.72	906.00
815.97	889.00
816.22	905.00
816.46	916.00
816.71	940.00
816.96	925.00
817.21	944.00
817.46	913.00
817.71	921.00
817.96	906.00
818.20	914.00
818.45	897.00
818.70	924.00
818.95	899.00
819.20	918.00
819.45	909.00
819.70	924.00
819.94	906.00
820.19	930.00
820.44	912.00
820.69	924.00
820.94	906.00
821.19	924.00
821.44	970.00
821.68	981.00
821.93	920.00
822.18	934.00
822.43	916.00
822.68	946.00
822.93	916.00
823.17	931.00
823.42	930.00
823.67	935.00
823.92	893.00
824.17	902.00
824.42	923.00
824.67	950.00
824.91	901.00
825.16	912.00
825.41	937.00
825.66	923.00
825.91	892.00
826.16	914.00
826.40	924.00
826.65	935.00
826.90	890.00
827.15	905.00
827.40	912.00
827.65	947.00
827.89	874.00
828.14	901.00
828.39	918.00
828.64	937.00
828.89	894.00
829.13	901.00
829.38	897.00
829.63	932.00
829.88	913.00
830.13	917.00
830.38	912.00
830.62	923.00
830.87	909.00
831.12	933.00
831.37	965.00
831.62	968.00
831.86	906.00
832.11	910.00
832.36	889.00
832.61	933.00
832.86	902.00
833.10	922.00
833.35	923.00
833.60	942.00
833.85	894.00
834.10	922.00
834.35	941.00
834.59	950.00
834.84	903.00
835.09	929.00
835.34	900.00
835.59	926.00
835.83	896.00
836.08	914.00
836.33	925.00
836.58	937.00
836.83	899.00
837.07	921.00
837.32	935.00
837.57	923.00
837.82	900.00
838.06	931.00
838.31	937.00
838.56	972.00
838.81	888.00
839.06	939.00
839.30	925.00
839.55	931.00
839.80	898.00
840.05	937.00
840.30	949.00
840.54	966.00
840.79	898.00
841.04	924.00
841.29	930.00
841.53	936.00
841.78	904.00
842.03	895.00
842.28	900.00
842.53	900.00
842.77	900.00
843.02	924.00
843.27	922.00
843.52	925.00
843.76	896.00
844.01	926.00
844.26	913.00
844.51	935.00
844.75	921.00
845.00	919.00
845.25	927.00
845.50	939.00
845.75	909.00
845.99	932.00
846.24	932.00
846.49	977.00
846.74	900.00
846.98	899.00
847.23	910.00
847.48	935.00
847.73	902.00
847.97	913.00
848.22	951.00
848.47	945.00
848.72	896.00
848.96	905.00
849.21	932.00
849.46	912.00
849.71	889.00
849.95	910.00
850.20	872.00
850.45	917.00
850.70	880.00
850.94	912.00
851.19	910.00
851.44	917.00
851.69	858.00
851.93	913.00
852.18	940.00
852.43	931.00
852.68	904.00
852.92	941.00
853.17	966.00
853.42	932.00
853.66	911.00
853.91	936.00
854.16	908.00
854.41	950.00
854.65	904.00
854.90	912.00
855.15	930.00
855.40	929.00
855.64	912.00
855.89	904.00
856.14	912.00
856.39	908.00
856.63	894.00
856.88	900.00
857.13	914.00
857.37	927.00
857.62	888.00
857.87	878.00
858.12	908.00
858.36	938.00
858.61	863.00
858.86	904.00
859.10	929.00
859.35	938.00
859.60	877.00
859.85	878.00
860.09	905.00
860.34	943.00
860.59	925.00
860.83	922.00
861.08	913.00
861.33	954.00
861.58	897.00
861.82	901.00
862.07	908.00
862.32	912.00
862.56	883.00
862.81	905.00
863.06	910.00
863.30	907.00
863.55	904.00
863.80	921.00
864.05	913.00
864.29	921.00
864.54	909.00
864.79	919.00
865.03	915.00
865.28	952.00
865.53	924.00
865.77	880.00
866.02	930.00
866.27	940.00
866.51	925.00
866.76	918.00
867.01	899.00
867.26	924.00
867.50	893.00
867.75	892.00
868.00	931.00
868.24	932.00
868.49	905.00
868.74	926.00
868.98	922.00
869.23	926.00
869.48	911.00
869.72	897.00
869.97	911.00
870.22	947.00
870.46	920.00
870.71	913.00
870.96	936.00
871.20	938.00
871.45	873.00
871.70	905.00
871.94	944.00
872.19	958.00
872.44	921.00
872.68	905.00
872.93	907.00
873.18	936.00
873.42	911.00
873.67	924.00
873.92	938.00
874.16	921.00
874.41	929.00
874.66	938.00
874.90	939.00
875.15	945.00
875.40	931.00
875.64	918.00
875.89	915.00
876.14	939.00
876.38	920.00
876.63	908.00
876.88	909.00
877.12	935.00
877.37	893.00
877.62	922.00
877.86	914.00
878.11	928.00
878.36	886.00
878.60	913.00
878.85	917.00
879.09	916.00
879.34	905.00
879.59	933.00
879.83	964.00
880.08	974.00
880.33	915.00
880.57	911.00
880.82	930.00
881.07	938.00
881.31	912.00
881.56	910.00
881.80	917.00
882.05	918.00
882.30	867.00
882.54	900.00
882.79	948.00
883.04	970.00
883.28	939.00
883.53	922.00
883.77	934.00
884.02	945.00
884.27	914.00
884.51	916.00
884.76	907.00
885.01	947.00
885.25	883.00
885.50	910.00
885.74	913.00
885.99	941.00
886.24	902.00
886.48	918.00
886.73	929.00
886.98	948.00
887.22	915.00
887.47	934.00
887.71	938.00
887.96	933.00
888.21	918.00
888.45	906.00
888.70	913.00
888.94	955.00
889.19	874.00
889.44	906.00
889.68	921.00
889.93	965.00
890.17	910.00
890.42	902.00
890.67	944.00
890.91	1005.00
891.16	914.00
891.40	902.00
891.65	899.00
891.90	932.00
892.14	868.00
892.39	930.00
892.63	905.00
892.88	958.00
893.13	922.00
893.37	914.00
893.62	913.00
893.86	930.00
894.11	901.00
894.36	921.00
894.60	905.00
894.85	906.00
895.09	890.00
895.34	929.00
895.59	913.00
895.83	921.00
896.08	887.00
896.32	898.00
896.57	907.00
896.81	931.00
897.06	919.00
897.31	921.00
897.55	955.00
897.80	924.00
898.04	885.00
898.29	909.00
898.53	907.00
898.78	933.00
899.03	920.00
899.27	899.00
899.52	915.00
899.76	949.00
900.01	896.00
900.25	926.00
900.50	921.00
900.75	941.00
900.99	918.00
901.24	986.00
901.48	930.00
901.73	930.00
901.97	901.00
902.22	929.00
902.47	937.00
902.71	934.00
902.96	882.00
903.20	920.00
903.45	940.00
903.69	932.00
903.94	926.00
904.18	889.00
904.43	915.00
904.68	926.00
904.92	894.00
905.17	924.00
905.41	955.00
905.66	944.00
905.90	932.00
906.15	909.00
906.39	932.00
906.64	934.00
906.88	890.00
907.13	907.00
907.38	933.00
907.62	963.00
907.87	891.00
908.11	936.00
908.36	907.00
908.60	930.00
908.85	869.00
909.09	905.00
909.34	909.00
909.58	926.00
909.83	913.00
910.07	918.00
910.32	971.00
910.56	974.00
910.81	902.00
911.06	945.00
911.30	957.00
911.55	936.00
911.79	909.00
912.04	916.00
912.28	906.00
912.53	948.00
912.77	931.00
913.02	933.00
913.26	921.00
913.51	929.00
913.75	909.00
914.00	911.00
914.24	925.00
914.49	932.00
914.73	894.00
914.98	927.00
915.22	963.00
915.47	936.00
915.71	899.00
915.96	915.00
916.20	920.00
916.45	919.00
916.69	897.00
916.94	921.00
917.18	946.00
917.43	938.00
917.67	890.00
917.92	885.00
918.16	927.00
918.41	917.00
918.65	896.00
918.90	885.00
919.14	898.00
919.39	917.00
919.63	892.00
919.88	905.00
920.12	938.00
920.37	935.00
920.61	880.00
920.86	913.00
921.10	938.00
921.35	925.00
921.59	908.00
921.84	916.00
922.08	938.00
922.33	955.00
922.57	897.00
922.82	888.00
923.06	911.00
923.31	946.00
923.55	871.00
923.80	897.00
924.04	921.00
924.29	934.00
924.53	899.00
924.78	910.00
925.02	903.00
925.27	912.00
925.51	908.00
925.76	934.00
926.00	939.00
926.25	925.00
926.49	889.00
926.73	925.00
926.98	940.00
927.22	958.00
927.47	915.00
927.71	908.00
927.96	936.00
928.20	939.00
928.45	907.00
928.69	970.00
928.94	950.00
929.18	922.00
929.43	922.00
929.67	909.00
929.91	914.00
930.16	950.00
930.40	897.00
930.65	884.00
930.89	910.00
931.14	966.00
931.38	905.00
931.63	927.00
931.87	940.00
932.12	938.00
932.36	881.00
932.60	915.00
932.85	952.00
933.09	924.00
933.34	898.00
933.58	929.00
933.83	912.00
934.07	945.00
934.32	913.00
934.56	925.00
934.80	971.00
935.05	990.00
935.29	931.00
935.54	925.00
935.78	912.00
936.03	936.00
936.27	881.00
936.52	908.00
936.76	920.00
937.00	923.00
937.25	926.00
937.49	924.00
937.74	944.00
937.98	949.00
938.23	884.00
938.47	886.00
938.71	918.00
938.96	923.00
939.20	892.00
939.45	905.00
939.69	926.00
939.94	946.00
940.18	884.00
940.42	913.00
940.67	938.00
940.91	936.00
941.16	908.00
941.40	904.00
941.64	918.00
941.89	938.00
942.13	897.00
942.38	927.00
942.62	1010.00
942.87	967.00
943.11	934.00
943.35	918.00
943.60	930.00
943.84	977.00
944.09	929.00
944.33	953.00
944.57	937.00
944.82	936.00
945.06	900.00
945.31	923.00
945.55	907.00
945.79	953.00
946.04	901.00
946.28	922.00
946.53	926.00
946.77	921.00
947.01	875.00
947.26	923.00
947.50	913.00
947.75	925.00
947.99	912.00
948.23	930.00
948.48	917.00
948.72	926.00
948.97	917.00
949.21	908.00
949.45	929.00
949.70	946.00
949.94	920.00
950.18	925.00
950.43	921.00
950.67	942.00
950.92	892.00
951.16	892.00
951.40	906.00
951.65	912.00
951.89	921.00
952.13	942.00
952.38	940.00
952.62	935.00
952.87	905.00
953.11	930.00
953.35	956.00
953.60	947.00
953.84	873.00
954.08	881.00
954.33	918.00
954.57	928.00
954.82	928.00
955.06	911.00
955.30	907.00
955.55	918.00
955.79	907.00
956.03	924.00
956.28	918.00
956.52	913.00
956.76	915.00
957.01	931.00
957.25	908.00
957.50	914.00
957.74	890.00
957.98	912.00
958.23	937.00
958.47	930.00
958.71	909.00
958.96	937.00
959.20	954.00
959.44	930.00
959.69	915.00
959.93	936.00
960.17	952.00
960.42	946.00
960.66	912.00
960.90	925.00
961.15	915.00
961.39	928.00
961.64	898.00
961.88	895.00
962.12	941.00
962.37	946.00
962.61	904.00
962.85	894.00
963.10	925.00
963.34	925.00
963.58	893.00
963.83	921.00
964.07	944.00
964.31	941.00
964.56	929.00
964.80	919.00
965.04	924.00
965.29	927.00
965.53	894.00
965.77	881.00
966.02	877.00
966.26	910.00
966.50	879.00
966.74	929.00
966.99	971.00
967.23	953.00
967.47	915.00
967.72	914.00
967.96	921.00
968.20	927.00
968.45	873.00
968.69	898.00
968.93	907.00
969.18	937.00
969.42	926.00
969.66	922.00
969.91	916.00
970.15	939.00
970.39	902.00
970.64	926.00
970.88	945.00
971.12	955.00
971.36	904.00
971.61	900.00
971.85	919.00
972.09	919.00
972.34	880.00
972.58	910.00
972.82	935.00
973.07	949.00
973.31	883.00
973.55	902.00
973.79	931.00
974.04	961.00
974.28	940.00
974.52	915.00
974.77	912.00
975.01	946.00
975.25	899.00
975.50	919.00
975.74	935.00
975.98	948.00
976.22	912.00
976.47	897.00
976.71	923.00
976.95	938.00
977.20	924.00
977.44	917.00
977.68	917.00
977.92	932.00
978.17	896.00
978.41	912.00
978.65	940.00
978.90	912.00
979.14	919.00
979.38	933.00
979.62	920.00
979.87	909.00
980.11	882.00
980.35	898.00
980.59	920.00
980.84	945.00
981.08	898.00
981.32	902.00
981.57	936.00
981.81	924.00
982.05	901.00
982.29	901.00
982.54	915.00
982.78	924.00
983.02	897.00
983.26	913.00
983.51	952.00
983.75	961.00
983.99	892.00
984.23	917.00
984.48	927.00
984.72	949.00
984.96	890.00
985.20	916.00
985.45	970.00
985.69	949.00
985.93	912.00
986.17	933.00
986.42	936.00
986.66	935.00
986.90	880.00
987.14	892.00
987.39	928.00
987.63	905.00
987.87	902.00
988.11	900.00
988.36	941.00
988.60	951.00
988.84	927.00
989.08	900.00
989.33	935.00
989.57	944.00
989.81	886.00
990.05	889.00
990.30	921.00
990.54	914.00
990.78	882.00
991.02	894.00
991.27	928.00
991.51	930.00
991.75	898.00
991.99	928.00
992.23	915.00
992.48	899.00
992.72	875.00
992.96	886.00
993.20	901.00
993.45	937.00
993.69	932.00
993.93	881.00
994.17	921.00
994.41	922.00
994.66	872.00
994.90	910.00
995.14	942.00
995.38	925.00
995.63	911.00
995.87	914.00
996.11	950.00
996.35	933.00
996.59	904.00
996.84	911.00
997.08	927.00
997.32	917.00
997.56	912.00
997.80	894.00
998.05	903.00
998.29	898.00
998.53	891.00
998.77	913.00
999.01	932.00
999.26	939.00
999.50	897.00
999.74	898.00
999.98	922.00
1000.22	920.00
1000.47	897.00
1000.71	906.00
1000.95	916.00
1001.19	921.00
1001.43	893.00
1001.68	915.00
1001.92	924.00
1002.16	908.00
1002.40	886.00
1002.64	906.00
1002.89	917.00
1003.13	925.00
1003.37	909.00
1003.61	897.00
1003.85	916.00
1004.10	911.00
1004.34	902.00
1004.58	888.00
1004.82	938.00
1005.06	913.00
1005.30	906.00
1005.55	893.00
1005.79	918.00
1006.03	930.00
1006.27	905.00
1006.51	908.00
1006.76	927.00
1007.00	952.00
1007.24	916.00
1007.48	916.00
1007.72	927.00
1007.96	931.00
1008.21	903.00
1008.45	923.00
1008.69	936.00
1008.93	944.00
1009.17	895.00
1009.41	940.00
1009.66	953.00
1009.90	922.00
1010.14	873.00
1010.38	925.00
1010.62	938.00
1010.86	962.00
1011.10	907.00
1011.35	909.00
1011.59	924.00
1011.83	898.00
1012.07	886.00
1012.31	917.00
1012.55	921.00
1012.80	934.00
1013.04	931.00
1013.28	931.00
1013.52	922.00
1013.76	939.00
1014.00	903.00
1014.24	905.00
1014.49	939.00
1014.73	974.00
1014.97	938.00
1015.21	912.00
1015.45	951.00
1015.69	915.00
1015.93	917.00
1016.18	910.00
1016.42	943.00
1016.66	947.00
1016.90	906.00
1017.14	884.00
1017.38	890.00
1017.62	913.00
1017.87	900.00
1018.11	904.00
1018.35	937.00
1018.59	936.00
1018.83	896.00
1019.07	909.00
1019.31	936.00
1019.55	946.00
1019.80	907.00
1020.04	916.00
1020.28	936.00
1020.52	934.00
1020.76	904.00
1021.00	885.00
1021.24	906.00
1021.48	908.00
1021.73	914.00
1021.97	928.00
1022.21	920.00
1022.45	935.00
1022.69	917.00
1022.93	903.00
1023.17	933.00
1023.41	953.00
1023.65	926.00
1023.90	956.00
1024.14	941.00
1024.38	903.00
1024.62	875.00
1024.86	902.00
1025.10	949.00
1025.34	932.00
1025.58	884.00
1025.82	912.00
1026.07	954.00
1026.31	948.00
1026.55	897.00
1026.79	878.00
1027.03	906.00
1027.27	930.00
1027.51	877.00
1027.75	863.00
1027.99	898.00
1028.23	950.00
1028.47	918.00
1028.72	894.00
1028.96	919.00
1029.20	922.00
1029.44	907.00
1029.68	931.00
1029.92	920.00
1030.16	936.00
1030.40	874.00
1030.64	896.00
1030.88	904.00
1031.12	896.00
1031.37	879.00
1031.61	918.00
1031.85	948.00
1032.09	943.00
1032.33	898.00
1032.57	948.00
1032.81	917.00
1033.05	944.00
1033.29	907.00
1033.53	909.00
1033.77	968.00
1034.01	968.00
1034.25	940.00
1034.50	933.00
1034.74	938.00
1034.98	934.00
1035.22	909.00
1035.46	939.00
1035.70	963.00
1035.94	951.00
1036.18	912.00
1036.42	898.00
1036.66	903.00
1036.90	914.00
1037.14	879.00
1037.38	904.00
1037.62	931.00
1037.86	916.00
1038.10	898.00
1038.35	906.00
1038.59	936.00
1038.83	936.00
1039.07	916.00
1039.31	924.00
1039.55	911.00
1039.79	925.00
1040.03	880.00
1040.27	871.00
1040.51	945.00
1040.75	972.00
1040.99	908.00
1041.23	918.00
1041.47	943.00
1041.71	949.00
1041.95	905.00
1042.19	916.00
1042.43	962.00
1042.67	957.00
1042.91	897.00
1043.15	904.00
1043.39	955.00
1043.64	936.00
1043.88	897.00
1044.12	906.00
1044.36	984.00
1044.60	967.00
1044.84	922.00
1045.08	926.00
1045.32	934.00
1045.56	942.00
1045.80	905.00
1046.04	899.00
1046.28	953.00
1046.52	938.00
1046.76	898.00
1047.00	891.00
1047.24	946.00
1047.48	941.00
1047.72	907.00
1047.96	914.00
1048.20	934.00
1048.44	930.00
1048.68	891.00
1048.92	916.00
1049.16	922.00
1049.40	946.00
1049.64	900.00
1049.88	909.00
1050.12	952.00
1050.36	953.00
1050.60	921.00
1050.84	915.00
1051.08	914.00
1051.32	920.00
1051.56	914.00
1051.80	904.00
1052.04	925.00
1052.28	957.00
1052.52	913.00
1052.76	892.00
1053.00	906.00
1053.24	929.00
1053.48	896.00
1053.72	907.00
1053.96	922.00
1054.20	917.00
1054.44	903.00
1054.68	925.00
1054.92	938.00
1055.16	894.00
1055.40	893.00
1055.64	912.00
1055.88	944.00
1056.12	965.00
1056.36	884.00
1056.60	914.00
1056.84	962.00
1057.08	919.00
1057.32	888.00
1057.56	882.00
1057.80	918.00
1058.04	959.00
1058.28	901.00
1058.52	914.00
1058.76	925.00
1059.00	945.00
1059.24	881.00
1059.48	891.00
1059.72	948.00
1059.96	936.00
1060.20	931.00
1060.44	939.00
1060.68	969.00
1060.92	928.00
1061.16	887.00
1061.40	898.00
1061.64	916.00
1061.88	923.00
1062.11	912.00
1062.35	892.00
1062.59	912.00
1062.83	946.00
1063.07	902.00
1063.31	884.00
1063.55	901.00
1063.79	928.00
1064.03	911.00
1064.27	903.00
1064.51	924.00
1064.75	927.00
1064.99	895.00
1065.23	909.00
1065.47	908.00
1065.71	939.00
1065.95	907.00
1066.19	911.00
1066.43	947.00
1066.67	932.00
1066.91	907.00
1067.15	907.00
1067.38	921.00
1067.62	933.00
1067.86	890.00
1068.10	933.00
1068.34	968.00
1068.58	954.00
1068.82	886.00
1069.06	875.00
1069.30	920.00
1069.54	939.00
1069.78	929.00
1070.02	917.00
1070.26	961.00
1070.50	973.00
1070.74	921.00
1070.98	923.00
1071.21	933.00
1071.45	917.00
1071.69	875.00
1071.93	907.00
1072.17	932.00
1072.41	948.00
1072.65	918.00
1072.89	925.00
1073.13	926.00
1073.37	912.00
1073.61	898.00
1073.85	935.00
1074.09	894.00
1074.32	909.00
1074.56	920.00
1074.80	993.00
1075.04	1179.00
1075.28	1027.00
1075.52	919.00
1075.76	932.00
1076.00	944.00
1076.24	924.00
1076.48	922.00
1076.72	923.00
1076.96	943.00
1077.19	934.00
1077.43	888.00
1077.67	918.00
1077.91	917.00
1078.15	906.00
1078.39	901.00
1078.63	908.00
1078.87	920.00
1079.11	916.00
1079.35	892.00
1079.58	893.00
1079.82	915.00
1080.06	917.00
1080.30	873.00
1080.54	913.00
1080.78	953.00
1081.02	927.00
1081.26	913.00
1081.50	925.00
1081.74	940.00
1081.97	938.00
1082.21	920.00
1082.45	916.00
1082.69	920.00
1082.93	914.00
1083.17	917.00
1083.41	913.00
1083.65	940.00
1083.88	955.00
1084.12	922.00
1084.36	918.00
1084.60	927.00
1084.84	930.00
1085.08	883.00
1085.32	899.00
1085.56	928.00
1085.80	923.00
1086.03	918.00
1086.27	901.00
1086.51	915.00
1086.75	936.00
1086.99	898.00
1087.23	877.00
1087.47	939.00
1087.70	929.00
1087.94	902.00
1088.18	928.00
1088.42	973.00
1088.66	930.00
1088.90	875.00
1089.14	914.00
1089.38	917.00
1089.61	933.00
1089.85	906.00
1090.09	891.00
1090.33	942.00
1090.57	946.00
1090.81	868.00
1091.05	907.00
1091.28	940.00
1091.52	931.00
1091.76	900.00
1092.00	908.00
1092.24	933.00
1092.48	969.00
1092.71	892.00
1092.95	918.00
1093.19	932.00
1093.43	936.00
1093.67	892.00
1093.91	908.00
1094.15	925.00
1094.38	933.00
1094.62	887.00
1094.86	898.00
1095.10	909.00
1095.34	916.00
1095.58	926.00
1095.81	915.00
1096.05	953.00
1096.29	959.00
1096.53	879.00
1096.77	913.00
1097.01	927.00
1097.24	940.00
1097.48	882.00
1097.72	923.00
1097.96	930.00
1098.20	948.00
1098.44	893.00
1098.67	881.00
1098.91	934.00
1099.15	929.00
1099.39	880.00
1099.63	910.00
1099.86	931.00
1100.10	902.00
1100.34	896.00
1100.58	879.00
1100.82	907.00
1101.06	922.00
1101.29	889.00
1101.53	919.00
1101.77	932.00
1102.01	913.00
1102.25	905.00
1102.48	916.00
1102.72	968.00
1102.96	945.00
1103.20	877.00
1103.44	911.00
1103.67	940.00
1103.91	935.00
1104.15	896.00
1104.39	899.00
1104.63	922.00
1104.86	901.00
1105.10	893.00
1105.34	927.00
1105.58	918.00
1105.82	931.00
1106.05	909.00
1106.29	934.00
1106.53	937.00
1106.77	946.00
1107.01	884.00
1107.24	942.00
1107.48	990.00
1107.72	938.00
1107.96	868.00
1108.20	904.00
1108.43	924.00
1108.67	916.00
1108.91	909.00
1109.15	909.00
1109.39	937.00
1109.62	922.00
1109.86	870.00
1110.10	902.00
1110.34	967.00
1110.57	962.00
1110.81	904.00
1111.05	916.00
1111.29	961.00
1111.53	976.00
1111.76	901.00
1112.00	948.00
1112.24	962.00
1112.48	937.00
1112.71	886.00
1112.95	901.00
1113.19	945.00
1113.43	916.00
1113.66	880.00
1113.90	933.00
1114.14	951.00
1114.38	932.00
1114.62	885.00
1114.85	932.00
1115.09	947.00
1115.33	984.00
1115.57	932.00
1115.80	899.00
1116.04	928.00
1116.28	922.00
1116.52	890.00
1116.75	909.00
1116.99	943.00
1117.23	950.00
1117.47	919.00
1117.70	930.00
1117.94	973.00
1118.18	920.00
1118.42	894.00
1118.65	948.00
1118.89	951.00
1119.13	940.00
1119.37	885.00
1119.60	927.00
1119.84	953.00
>>>>>End Processed Spectral Data<<<<<
