SpectraSuite Data File
++++++++++++++++++++++++++++++++++++
Date: Fri Nov 29 15:20:25 CET 2024
User: student
Dark Spectrum Present: No
Reference Spectrum Present: No
Number of Sampled Component Spectra: 1
Spectrometers: HR4C155
Integration Time (usec): 100000 (HR4C155)
Spectra Averaged: 1 (HR4C155)
Boxcar Smoothing: 0 (HR4C155)
Correct for Electrical Dark: No (HR4C155)
Strobe/Lamp Enabled: No (HR4C155)
Correct for Detector Non-linearity: No (HR4C155)
Correct for Stray Light: No (HR4C155)
Number of Pixels in Processed Spectrum: 3648
>>>>>Begin Processed Spectral Data<<<<<
195.39	752.00
195.66	752.00
195.93	752.00
196.20	714.00
196.46	753.00
196.73	874.00
197.00	895.00
197.27	871.00
197.54	895.00
197.81	913.00
198.08	892.00
198.35	915.00
198.61	925.00
198.88	905.00
199.15	893.00
199.42	915.00
199.69	929.00
199.96	900.00
200.23	933.00
200.49	937.00
200.76	939.00
201.03	928.00
201.30	923.00
201.57	971.00
201.84	976.00
202.11	934.00
202.38	962.00
202.64	971.00
202.91	975.00
203.18	913.00
203.45	977.00
203.72	1053.00
203.99	974.00
204.25	968.00
204.52	962.00
204.79	990.00
205.06	997.00
205.33	935.00
205.60	948.00
205.87	980.00
206.13	979.00
206.40	937.00
206.67	938.00
206.94	992.00
207.21	982.00
207.48	952.00
207.75	937.00
208.01	986.00
208.28	983.00
208.55	946.00
208.82	953.00
209.09	947.00
209.36	975.00
209.62	951.00
209.89	966.00
210.16	999.00
210.43	1022.00
210.70	946.00
210.97	953.00
211.23	985.00
211.50	1006.00
211.77	929.00
212.04	940.00
212.31	948.00
212.58	1002.00
212.84	958.00
213.11	962.00
213.38	942.00
213.65	950.00
213.92	942.00
214.18	958.00
214.45	994.00
214.72	990.00
214.99	950.00
215.26	967.00
215.53	938.00
215.79	981.00
216.06	972.00
216.33	969.00
216.60	951.00
216.87	990.00
217.13	919.00
217.40	910.00
217.67	962.00
217.94	993.00
218.21	927.00
218.48	973.00
218.74	1013.00
219.01	976.00
219.28	909.00
219.55	922.00
219.82	968.00
220.08	978.00
220.35	945.00
220.62	936.00
220.89	982.00
221.16	1020.00
221.42	973.00
221.69	966.00
221.96	976.00
222.23	1010.00
222.50	983.00
222.76	985.00
223.03	949.00
223.30	949.00
223.57	929.00
223.84	925.00
224.10	934.00
224.37	961.00
224.64	918.00
224.91	937.00
225.18	994.00
225.44	1002.00
225.71	941.00
225.98	967.00
226.25	986.00
226.51	985.00
226.78	923.00
227.05	932.00
227.32	973.00
227.59	983.00
227.85	968.00
228.12	957.00
228.39	997.00
228.66	996.00
228.92	994.00
229.19	962.00
229.46	986.00
229.73	945.00
230.00	931.00
230.26	960.00
230.53	992.00
230.80	969.00
231.07	923.00
231.33	929.00
231.60	972.00
231.87	980.00
232.14	942.00
232.41	990.00
232.67	978.00
232.94	987.00
233.21	941.00
233.48	957.00
233.74	971.00
234.01	969.00
234.28	948.00
234.55	955.00
234.81	948.00
235.08	997.00
235.35	964.00
235.62	935.00
235.88	966.00
236.15	986.00
236.42	942.00
236.69	948.00
236.95	964.00
237.22	948.00
237.49	935.00
237.76	927.00
238.02	973.00
238.29	1002.00
238.56	957.00
238.83	953.00
239.09	955.00
239.36	977.00
239.63	925.00
239.90	950.00
240.16	1004.00
240.43	1029.00
240.70	954.00
240.97	950.00
241.23	965.00
241.50	975.00
241.77	956.00
242.04	961.00
242.30	915.00
242.57	955.00
242.84	938.00
243.11	958.00
243.37	938.00
243.64	1001.00
243.91	940.00
244.18	937.00
244.44	922.00
244.71	940.00
244.98	930.00
245.24	941.00
245.51	959.00
245.78	997.00
246.05	935.00
246.31	944.00
246.58	986.00
246.85	944.00
247.12	930.00
247.38	985.00
247.65	968.00
247.92	977.00
248.18	949.00
248.45	946.00
248.72	947.00
248.99	959.00
249.25	915.00
249.52	941.00
249.79	966.00
250.05	961.00
250.32	933.00
250.59	941.00
250.86	957.00
251.12	972.00
251.39	936.00
251.66	968.00
251.92	992.00
252.19	993.00
252.46	925.00
252.73	988.00
252.99	999.00
253.26	1016.00
253.53	930.00
253.79	963.00
254.06	981.00
254.33	945.00
254.60	906.00
254.86	920.00
255.13	983.00
255.40	1016.00
255.66	950.00
255.93	976.00
256.20	981.00
256.46	978.00
256.73	940.00
257.00	954.00
257.26	973.00
257.53	979.00
257.80	964.00
258.07	964.00
258.33	997.00
258.60	986.00
258.87	933.00
259.13	951.00
259.40	938.00
259.67	995.00
259.93	977.00
260.20	970.00
260.47	983.00
260.73	954.00
261.00	941.00
261.27	963.00
261.53	966.00
261.80	955.00
262.07	929.00
262.34	946.00
262.60	937.00
262.87	968.00
263.14	941.00
263.40	973.00
263.67	951.00
263.94	952.00
264.20	957.00
264.47	925.00
264.74	939.00
265.00	961.00
265.27	915.00
265.54	933.00
265.80	973.00
266.07	1004.00
266.34	934.00
266.60	937.00
266.87	971.00
267.14	978.00
267.40	929.00
267.67	929.00
267.94	969.00
268.20	953.00
268.47	910.00
268.74	930.00
269.00	961.00
269.27	937.00
269.54	905.00
269.80	926.00
270.07	976.00
270.33	946.00
270.60	919.00
270.87	965.00
271.13	947.00
271.40	960.00
271.67	899.00
271.93	896.00
272.20	963.00
272.47	954.00
272.73	915.00
273.00	938.00
273.27	966.00
273.53	982.00
273.80	942.00
274.07	926.00
274.33	954.00
274.60	966.00
274.86	936.00
275.13	945.00
275.40	946.00
275.66	985.00
275.93	928.00
276.20	931.00
276.46	952.00
276.73	952.00
277.00	938.00
277.26	959.00
277.53	989.00
277.79	958.00
278.06	925.00
278.33	981.00
278.59	974.00
278.86	946.00
279.13	922.00
279.39	947.00
279.66	988.00
279.93	994.00
280.19	925.00
280.46	940.00
280.72	957.00
280.99	969.00
281.26	951.00
281.52	928.00
281.79	955.00
282.05	946.00
282.32	938.00
282.59	958.00
282.85	988.00
283.12	981.00
283.39	931.00
283.65	948.00
283.92	956.00
284.18	987.00
284.45	941.00
284.72	955.00
284.98	956.00
285.25	937.00
285.51	953.00
285.78	951.00
286.05	945.00
286.31	953.00
286.58	911.00
286.84	920.00
287.11	959.00
287.38	974.00
287.64	954.00
287.91	922.00
288.17	974.00
288.44	956.00
288.71	908.00
288.97	937.00
289.24	983.00
289.50	961.00
289.77	949.00
290.04	920.00
290.30	939.00
290.57	981.00
290.83	915.00
291.10	917.00
291.37	957.00
291.63	953.00
291.90	963.00
292.16	944.00
292.43	969.00
292.70	961.00
292.96	906.00
293.23	919.00
293.49	941.00
293.76	978.00
294.02	929.00
294.29	938.00
294.56	953.00
294.82	965.00
295.09	943.00
295.35	943.00
295.62	980.00
295.89	999.00
296.15	922.00
296.42	932.00
296.68	940.00
296.95	958.00
297.21	954.00
297.48	945.00
297.75	954.00
298.01	999.00
298.28	939.00
298.54	946.00
298.81	963.00
299.07	968.00
299.34	913.00
299.61	937.00
299.87	978.00
300.14	961.00
300.40	970.00
300.67	963.00
300.93	966.00
301.20	1014.00
301.46	922.00
301.73	944.00
302.00	956.00
302.26	940.00
302.53	937.00
302.79	954.00
303.06	963.00
303.32	998.00
303.59	929.00
303.85	910.00
304.12	942.00
304.39	970.00
304.65	945.00
304.92	942.00
305.18	959.00
305.45	968.00
305.71	936.00
305.98	946.00
306.24	951.00
306.51	945.00
306.77	923.00
307.04	947.00
307.31	986.00
307.57	985.00
307.84	919.00
308.10	927.00
308.37	908.00
308.63	943.00
308.90	941.00
309.16	942.00
309.43	961.00
309.69	943.00
309.96	939.00
310.22	925.00
310.49	962.00
310.76	972.00
311.02	912.00
311.29	939.00
311.55	944.00
311.82	969.00
312.08	956.00
312.35	948.00
312.61	970.00
312.88	982.00
313.14	923.00
313.41	908.00
313.67	922.00
313.94	969.00
314.20	951.00
314.47	961.00
314.73	933.00
315.00	929.00
315.26	908.00
315.53	962.00
315.79	966.00
316.06	977.00
316.32	935.00
316.59	964.00
316.85	944.00
317.12	952.00
317.39	914.00
317.65	936.00
317.92	956.00
318.18	966.00
318.45	937.00
318.71	969.00
318.98	992.00
319.24	971.00
319.51	936.00
319.77	929.00
320.04	948.00
320.30	949.00
320.57	927.00
320.83	917.00
321.10	916.00
321.36	953.00
321.63	908.00
321.89	935.00
322.16	989.00
322.42	975.00
322.69	916.00
322.95	938.00
323.22	976.00
323.48	975.00
323.75	927.00
324.01	949.00
324.28	963.00
324.54	957.00
324.80	923.00
325.07	945.00
325.33	973.00
325.60	948.00
325.86	919.00
326.13	925.00
326.39	951.00
326.66	931.00
326.92	890.00
327.19	933.00
327.45	990.00
327.72	982.00
327.98	927.00
328.25	920.00
328.51	940.00
328.78	968.00
329.04	924.00
329.31	955.00
329.57	943.00
329.84	955.00
330.10	932.00
330.37	932.00
330.63	975.00
330.89	991.00
331.16	934.00
331.42	949.00
331.69	997.00
331.95	952.00
332.22	940.00
332.48	994.00
332.75	970.00
333.01	936.00
333.28	931.00
333.54	934.00
333.81	950.00
334.07	981.00
334.34	948.00
334.60	946.00
334.86	996.00
335.13	1015.00
335.39	959.00
335.66	955.00
335.92	982.00
336.19	964.00
336.45	893.00
336.72	909.00
336.98	933.00
337.24	970.00
337.51	921.00
337.77	940.00
338.04	952.00
338.30	957.00
338.57	919.00
338.83	941.00
339.10	953.00
339.36	961.00
339.63	930.00
339.89	898.00
340.15	937.00
340.42	956.00
340.68	946.00
340.95	965.00
341.21	949.00
341.48	965.00
341.74	911.00
342.00	918.00
342.27	958.00
342.53	968.00
342.80	923.00
343.06	938.00
343.33	956.00
343.59	958.00
343.85	917.00
344.12	944.00
344.38	1011.00
344.65	1000.00
344.91	922.00
345.18	920.00
345.44	939.00
345.70	935.00
345.97	897.00
346.23	933.00
346.50	960.00
346.76	958.00
347.03	946.00
347.29	938.00
347.55	934.00
347.82	934.00
348.08	898.00
348.35	916.00
348.61	979.00
348.87	962.00
349.14	927.00
349.40	915.00
349.67	958.00
349.93	959.00
350.20	938.00
350.46	954.00
350.72	996.00
350.99	958.00
351.25	946.00
351.52	930.00
351.78	934.00
352.04	951.00
352.31	937.00
352.57	925.00
352.84	944.00
353.10	974.00
353.36	934.00
353.63	924.00
353.89	949.00
354.16	967.00
354.42	941.00
354.68	946.00
354.95	981.00
355.21	964.00
355.48	920.00
355.74	950.00
356.00	989.00
356.27	976.00
356.53	912.00
356.80	932.00
357.06	971.00
357.32	985.00
357.59	951.00
357.85	950.00
358.11	1005.00
358.38	978.00
358.64	943.00
358.91	938.00
359.17	949.00
359.43	964.00
359.70	955.00
359.96	942.00
360.22	974.00
360.49	955.00
360.75	947.00
361.02	923.00
361.28	935.00
361.54	948.00
361.81	910.00
362.07	930.00
362.33	945.00
362.60	947.00
362.86	919.00
363.13	950.00
363.39	981.00
363.65	977.00
363.92	895.00
364.18	905.00
364.44	941.00
364.71	960.00
364.97	921.00
365.24	931.00
365.50	967.00
365.76	976.00
366.03	935.00
366.29	944.00
366.55	983.00
366.82	945.00
367.08	898.00
367.34	935.00
367.61	962.00
367.87	975.00
368.13	944.00
368.40	937.00
368.66	997.00
368.93	975.00
369.19	904.00
369.45	908.00
369.72	949.00
369.98	940.00
370.24	902.00
370.51	927.00
370.77	971.00
371.03	962.00
371.30	939.00
371.56	950.00
371.82	977.00
372.09	965.00
372.35	954.00
372.61	939.00
372.88	950.00
373.14	963.00
373.40	931.00
373.67	943.00
373.93	961.00
374.19	953.00
374.46	912.00
374.72	926.00
374.98	947.00
375.25	961.00
375.51	962.00
375.77	973.00
376.04	966.00
376.30	957.00
376.56	905.00
376.83	914.00
377.09	966.00
377.35	963.00
377.62	934.00
377.88	927.00
378.14	942.00
378.41	970.00
378.67	935.00
378.93	925.00
379.20	970.00
379.46	939.00
379.72	917.00
379.99	932.00
380.25	938.00
380.51	940.00
380.77	930.00
381.04	929.00
381.30	970.00
381.56	1005.00
381.83	961.00
382.09	947.00
382.35	956.00
382.62	988.00
382.88	958.00
383.14	938.00
383.41	953.00
383.67	939.00
383.93	952.00
384.20	944.00
384.46	948.00
384.72	982.00
384.98	921.00
385.25	952.00
385.51	969.00
385.77	968.00
386.04	926.00
386.30	925.00
386.56	984.00
386.82	1021.00
387.09	941.00
387.35	968.00
387.61	1053.00
387.88	992.00
388.14	944.00
388.40	944.00
388.67	942.00
388.93	939.00
389.19	931.00
389.45	918.00
389.72	958.00
389.98	962.00
390.24	929.00
390.51	926.00
390.77	979.00
391.03	974.00
391.29	911.00
391.56	938.00
391.82	979.00
392.08	1002.00
392.35	935.00
392.61	933.00
392.87	974.00
393.13	983.00
393.40	928.00
393.66	957.00
393.92	972.00
394.18	980.00
394.45	907.00
394.71	924.00
394.97	941.00
395.24	925.00
395.50	905.00
395.76	951.00
396.02	965.00
396.29	956.00
396.55	902.00
396.81	890.00
397.07	941.00
397.34	927.00
397.60	915.00
397.86	909.00
398.12	941.00
398.39	984.00
398.65	926.00
398.91	941.00
399.17	947.00
399.44	907.00
399.70	880.00
399.96	913.00
400.22	933.00
400.49	985.00
400.75	945.00
401.01	921.00
401.27	937.00
401.54	974.00
401.80	930.00
402.06	932.00
402.32	984.00
402.59	942.00
402.85	919.00
403.11	926.00
403.37	948.00
403.64	997.00
403.90	929.00
404.16	928.00
404.42	930.00
404.69	927.00
404.95	903.00
405.21	883.00
405.47	932.00
405.74	961.00
406.00	936.00
406.26	925.00
406.52	938.00
406.79	948.00
407.05	923.00
407.31	937.00
407.57	933.00
407.83	962.00
408.10	893.00
408.36	897.00
408.62	928.00
408.88	948.00
409.15	935.00
409.41	895.00
409.67	920.00
409.93	976.00
410.20	941.00
410.46	922.00
410.72	931.00
410.98	956.00
411.24	933.00
411.51	939.00
411.77	922.00
412.03	933.00
412.29	950.00
412.55	963.00
412.82	928.00
413.08	946.00
413.34	950.00
413.60	943.00
413.87	944.00
414.13	951.00
414.39	904.00
414.65	946.00
414.91	980.00
415.18	945.00
415.44	910.00
415.70	926.00
415.96	946.00
416.22	940.00
416.49	919.00
416.75	932.00
417.01	960.00
417.27	950.00
417.53	928.00
417.80	939.00
418.06	972.00
418.32	976.00
418.58	910.00
418.84	893.00
419.11	955.00
419.37	957.00
419.63	909.00
419.89	909.00
420.15	933.00
420.42	946.00
420.68	915.00
420.94	918.00
421.20	929.00
421.46	933.00
421.72	932.00
421.99	927.00
422.25	956.00
422.51	949.00
422.77	936.00
423.03	945.00
423.30	949.00
423.56	960.00
423.82	970.00
424.08	959.00
424.34	951.00
424.60	938.00
424.87	911.00
425.13	926.00
425.39	945.00
425.65	940.00
425.91	923.00
426.18	946.00
426.44	954.00
426.70	921.00
426.96	895.00
427.22	902.00
427.48	937.00
427.75	948.00
428.01	907.00
428.27	938.00
428.53	971.00
428.79	933.00
429.05	916.00
429.32	936.00
429.58	994.00
429.84	946.00
430.10	934.00
430.36	942.00
430.62	984.00
430.88	977.00
431.15	942.00
431.41	948.00
431.67	955.00
431.93	926.00
432.19	882.00
432.45	929.00
432.72	958.00
432.98	941.00
433.24	941.00
433.50	1019.00
433.76	945.00
434.02	944.00
434.28	934.00
434.55	936.00
434.81	967.00
435.07	951.00
435.33	907.00
435.59	916.00
435.85	937.00
436.11	968.00
436.38	899.00
436.64	915.00
436.90	934.00
437.16	939.00
437.42	927.00
437.68	956.00
437.94	959.00
438.21	969.00
438.47	956.00
438.73	938.00
438.99	925.00
439.25	952.00
439.51	919.00
439.77	933.00
440.03	930.00
440.30	973.00
440.56	935.00
440.82	953.00
441.08	956.00
441.34	945.00
441.60	911.00
441.86	928.00
442.12	954.00
442.39	951.00
442.65	907.00
442.91	910.00
443.17	922.00
443.43	942.00
443.69	948.00
443.95	918.00
444.21	920.00
444.47	960.00
444.74	920.00
445.00	928.00
445.26	942.00
445.52	957.00
445.78	923.00
446.04	937.00
446.30	983.00
446.56	963.00
446.82	902.00
447.09	921.00
447.35	969.00
447.61	953.00
447.87	924.00
448.13	949.00
448.39	999.00
448.65	963.00
448.91	924.00
449.17	931.00
449.43	941.00
449.70	933.00
449.96	900.00
450.22	919.00
450.48	934.00
450.74	972.00
451.00	935.00
451.26	940.00
451.52	935.00
451.78	931.00
452.04	909.00
452.31	942.00
452.57	952.00
452.83	922.00
453.09	908.00
453.35	905.00
453.61	922.00
453.87	948.00
454.13	953.00
454.39	950.00
454.65	1010.00
454.91	1005.00
455.17	923.00
455.44	907.00
455.70	956.00
455.96	977.00
456.22	918.00
456.48	921.00
456.74	948.00
457.00	907.00
457.26	867.00
457.52	915.00
457.78	950.00
458.04	960.00
458.30	904.00
458.56	944.00
458.82	932.00
459.09	901.00
459.35	849.00
459.61	876.00
459.87	924.00
460.13	953.00
460.39	914.00
460.65	910.00
460.91	960.00
461.17	934.00
461.43	891.00
461.69	901.00
461.95	936.00
462.21	930.00
462.47	935.00
462.73	970.00
462.99	967.00
463.26	943.00
463.52	890.00
463.78	903.00
464.04	917.00
464.30	937.00
464.56	906.00
464.82	926.00
465.08	973.00
465.34	970.00
465.60	939.00
465.86	935.00
466.12	942.00
466.38	902.00
466.64	886.00
466.90	916.00
467.16	935.00
467.42	954.00
467.68	905.00
467.94	941.00
468.20	964.00
468.46	949.00
468.72	927.00
468.98	942.00
469.25	947.00
469.51	920.00
469.77	928.00
470.03	932.00
470.29	936.00
470.55	972.00
470.81	940.00
471.07	942.00
471.33	959.00
471.59	979.00
471.85	926.00
472.11	938.00
472.37	956.00
472.63	953.00
472.89	957.00
473.15	931.00
473.41	941.00
473.67	937.00
473.93	887.00
474.19	898.00
474.45	934.00
474.71	943.00
474.97	918.00
475.23	911.00
475.49	930.00
475.75	928.00
476.01	942.00
476.27	951.00
476.53	965.00
476.79	955.00
477.05	938.00
477.31	922.00
477.57	955.00
477.83	949.00
478.09	886.00
478.35	935.00
478.61	972.00
478.87	942.00
479.13	907.00
479.39	940.00
479.65	976.00
479.91	966.00
480.17	930.00
480.43	949.00
480.69	917.00
480.95	963.00
481.21	916.00
481.47	937.00
481.73	931.00
481.99	924.00
482.25	889.00
482.51	885.00
482.77	951.00
483.03	949.00
483.29	938.00
483.55	931.00
483.81	966.00
484.07	971.00
484.33	902.00
484.59	904.00
484.85	960.00
485.11	949.00
485.37	924.00
485.63	932.00
485.89	919.00
486.15	919.00
486.41	900.00
486.67	917.00
486.93	951.00
487.19	933.00
487.45	911.00
487.71	913.00
487.97	965.00
488.23	962.00
488.49	899.00
488.75	893.00
489.01	946.00
489.27	963.00
489.53	917.00
489.79	911.00
490.05	941.00
490.31	969.00
490.57	946.00
490.83	982.00
491.08	941.00
491.34	923.00
491.60	906.00
491.86	938.00
492.12	999.00
492.38	974.00
492.64	902.00
492.90	913.00
493.16	950.00
493.42	922.00
493.68	893.00
493.94	935.00
494.20	930.00
494.46	931.00
494.72	911.00
494.98	913.00
495.24	942.00
495.50	941.00
495.76	938.00
496.02	952.00
496.28	971.00
496.54	960.00
496.80	917.00
497.05	909.00
497.31	939.00
497.57	937.00
497.83	904.00
498.09	937.00
498.35	971.00
498.61	963.00
498.87	942.00
499.13	940.00
499.39	943.00
499.65	935.00
499.91	926.00
500.17	915.00
500.43	990.00
500.69	1017.00
500.95	902.00
501.20	937.00
501.46	949.00
501.72	966.00
501.98	941.00
502.24	949.00
502.50	970.00
502.76	953.00
503.02	935.00
503.28	940.00
503.54	1005.00
503.80	984.00
504.06	949.00
504.32	966.00
504.58	955.00
504.83	932.00
505.09	902.00
505.35	922.00
505.61	915.00
505.87	949.00
506.13	948.00
506.39	930.00
506.65	971.00
506.91	985.00
507.17	931.00
507.43	921.00
507.68	945.00
507.94	972.00
508.20	915.00
508.46	905.00
508.72	965.00
508.98	985.00
509.24	919.00
509.50	946.00
509.76	958.00
510.02	945.00
510.28	897.00
510.53	931.00
510.79	953.00
511.05	954.00
511.31	923.00
511.57	943.00
511.83	942.00
512.09	954.00
512.35	908.00
512.61	923.00
512.87	948.00
513.12	951.00
513.38	910.00
513.64	921.00
513.90	940.00
514.16	984.00
514.42	932.00
514.68	936.00
514.94	974.00
515.20	959.00
515.45	927.00
515.71	940.00
515.97	953.00
516.23	941.00
516.49	902.00
516.75	921.00
517.01	950.00
517.27	939.00
517.53	900.00
517.78	923.00
518.04	940.00
518.30	928.00
518.56	906.00
518.82	943.00
519.08	976.00
519.34	926.00
519.60	907.00
519.85	925.00
520.11	950.00
520.37	949.00
520.63	921.00
520.89	942.00
521.15	934.00
521.41	937.00
521.66	924.00
521.92	926.00
522.18	941.00
522.44	957.00
522.70	920.00
522.96	899.00
523.22	964.00
523.48	958.00
523.73	930.00
523.99	930.00
524.25	993.00
524.51	958.00
524.77	903.00
525.03	915.00
525.29	936.00
525.54	952.00
525.80	925.00
526.06	918.00
526.32	922.00
526.58	927.00
526.84	908.00
527.09	905.00
527.35	921.00
527.61	937.00
527.87	900.00
528.13	951.00
528.39	928.00
528.65	931.00
528.90	884.00
529.16	925.00
529.42	922.00
529.68	919.00
529.94	914.00
530.20	937.00
530.45	930.00
530.71	927.00
530.97	905.00
531.23	929.00
531.49	940.00
531.75	931.00
532.00	910.00
532.26	908.00
532.52	947.00
532.78	910.00
533.04	889.00
533.30	918.00
533.55	940.00
533.81	936.00
534.07	899.00
534.33	921.00
534.59	970.00
534.85	951.00
535.10	905.00
535.36	900.00
535.62	952.00
535.88	921.00
536.14	901.00
536.39	909.00
536.65	952.00
536.91	962.00
537.17	905.00
537.43	905.00
537.69	967.00
537.94	942.00
538.20	893.00
538.46	918.00
538.72	947.00
538.98	945.00
539.23	902.00
539.49	898.00
539.75	970.00
540.01	945.00
540.27	907.00
540.52	945.00
540.78	940.00
541.04	959.00
541.30	907.00
541.56	899.00
541.81	978.00
542.07	1029.00
542.33	925.00
542.59	920.00
542.85	934.00
543.10	947.00
543.36	924.00
543.62	937.00
543.88	940.00
544.14	943.00
544.39	916.00
544.65	937.00
544.91	967.00
545.17	936.00
545.43	902.00
545.68	907.00
545.94	952.00
546.20	963.00
546.46	910.00
546.71	920.00
546.97	958.00
547.23	940.00
547.49	920.00
547.75	913.00
548.00	942.00
548.26	971.00
548.52	910.00
548.78	894.00
549.03	926.00
549.29	936.00
549.55	905.00
549.81	907.00
550.07	948.00
550.32	954.00
550.58	904.00
550.84	920.00
551.10	928.00
551.35	949.00
551.61	924.00
551.87	934.00
552.13	942.00
552.39	933.00
552.64	900.00
552.90	925.00
553.16	941.00
553.42	949.00
553.67	905.00
553.93	933.00
554.19	965.00
554.45	976.00
554.70	933.00
554.96	912.00
555.22	929.00
555.48	952.00
555.73	890.00
555.99	914.00
556.25	957.00
556.51	936.00
556.76	925.00
557.02	954.00
557.28	974.00
557.54	934.00
557.79	915.00
558.05	948.00
558.31	941.00
558.57	968.00
558.82	916.00
559.08	885.00
559.34	899.00
559.60	952.00
559.85	945.00
560.11	926.00
560.37	930.00
560.63	917.00
560.88	905.00
561.14	920.00
561.40	971.00
561.66	934.00
561.91	905.00
562.17	917.00
562.43	956.00
562.68	949.00
562.94	921.00
563.20	942.00
563.46	971.00
563.71	978.00
563.97	918.00
564.23	938.00
564.49	968.00
564.74	944.00
565.00	897.00
565.26	922.00
565.51	941.00
565.77	921.00
566.03	897.00
566.29	917.00
566.54	903.00
566.80	928.00
567.06	913.00
567.31	923.00
567.57	959.00
567.83	936.00
568.09	947.00
568.34	921.00
568.60	917.00
568.86	960.00
569.11	943.00
569.37	925.00
569.63	954.00
569.89	951.00
570.14	878.00
570.40	910.00
570.66	919.00
570.91	931.00
571.17	912.00
571.43	939.00
571.69	984.00
571.94	990.00
572.20	911.00
572.46	917.00
572.71	954.00
572.97	946.00
573.23	907.00
573.48	930.00
573.74	929.00
574.00	938.00
574.26	898.00
574.51	925.00
574.77	954.00
575.03	936.00
575.28	899.00
575.54	900.00
575.80	922.00
576.05	945.00
576.31	890.00
576.57	877.00
576.82	929.00
577.08	949.00
577.34	912.00
577.59	928.00
577.85	956.00
578.11	926.00
578.37	914.00
578.62	905.00
578.88	941.00
579.14	954.00
579.39	939.00
579.65	953.00
579.91	957.00
580.16	942.00
580.42	905.00
580.68	909.00
580.93	945.00
581.19	911.00
581.45	893.00
581.70	929.00
581.96	947.00
582.22	962.00
582.47	925.00
582.73	930.00
582.99	958.00
583.24	951.00
583.50	899.00
583.76	899.00
584.01	933.00
584.27	965.00
584.53	942.00
584.78	942.00
585.04	919.00
585.30	933.00
585.55	922.00
585.81	924.00
586.07	979.00
586.32	952.00
586.58	933.00
586.83	920.00
587.09	949.00
587.35	953.00
587.60	911.00
587.86	904.00
588.12	911.00
588.37	941.00
588.63	935.00
588.89	953.00
589.14	969.00
589.40	962.00
589.66	921.00
589.91	934.00
590.17	949.00
590.43	894.00
590.68	892.00
590.94	930.00
591.19	972.00
591.45	957.00
591.71	921.00
591.96	934.00
592.22	951.00
592.48	964.00
592.73	895.00
592.99	917.00
593.25	945.00
593.50	956.00
593.76	907.00
594.01	930.00
594.27	953.00
594.53	951.00
594.78	907.00
595.04	939.00
595.30	959.00
595.55	951.00
595.81	907.00
596.06	933.00
596.32	982.00
596.58	971.00
596.83	907.00
597.09	961.00
597.35	965.00
597.60	938.00
597.86	902.00
598.11	933.00
598.37	977.00
598.63	958.00
598.88	915.00
599.14	914.00
599.39	966.00
599.65	956.00
599.91	908.00
600.16	920.00
600.42	965.00
600.67	986.00
600.93	921.00
601.19	953.00
601.44	1003.00
601.70	970.00
601.95	919.00
602.21	947.00
602.47	951.00
602.72	967.00
602.98	923.00
603.23	939.00
603.49	972.00
603.75	977.00
604.00	935.00
604.26	924.00
604.51	952.00
604.77	991.00
605.03	939.00
605.28	962.00
605.54	998.00
605.79	1012.00
606.05	933.00
606.31	925.00
606.56	977.00
606.82	988.00
607.07	978.00
607.33	980.00
607.59	985.00
607.84	983.00
608.10	933.00
608.35	965.00
608.61	1003.00
608.86	1006.00
609.12	973.00
609.38	993.00
609.63	1010.00
609.89	1013.00
610.14	964.00
610.40	980.00
610.65	993.00
610.91	997.00
611.17	961.00
611.42	974.00
611.68	1026.00
611.93	1040.00
612.19	1012.00
612.44	1030.00
612.70	1045.00
612.96	1010.00
613.21	996.00
613.47	995.00
613.72	1024.00
613.98	1033.00
614.23	999.00
614.49	1050.00
614.75	1061.00
615.00	1049.00
615.26	1023.00
615.51	1018.00
615.77	1059.00
616.02	1071.00
616.28	1038.00
616.53	1058.00
616.79	1081.00
617.05	1074.00
617.30	1052.00
617.56	1065.00
617.81	1112.00
618.07	1098.00
618.32	1101.00
618.58	1126.00
618.83	1137.00
619.09	1145.00
619.34	1088.00
619.60	1094.00
619.86	1142.00
620.11	1205.00
620.37	1178.00
620.62	1194.00
620.88	1178.00
621.13	1177.00
621.39	1177.00
621.64	1234.00
621.90	1286.00
622.15	1256.00
622.41	1242.00
622.66	1293.00
622.92	1307.00
623.18	1297.00
623.43	1273.00
623.69	1295.00
623.94	1364.00
624.20	1345.00
624.45	1324.00
624.71	1356.00
624.96	1413.00
625.22	1448.00
625.47	1403.00
625.73	1443.00
625.98	1443.00
626.24	1433.00
626.49	1415.00
626.75	1455.00
627.00	1556.00
627.26	1617.00
627.51	1560.00
627.77	1583.00
628.02	1638.00
628.28	1696.00
628.53	1657.00
628.79	1767.00
629.05	1808.00
629.30	1922.00
629.56	2029.00
629.81	2047.00
630.07	2116.00
630.32	2071.00
630.58	1981.00
630.83	2013.00
631.09	2052.00
631.34	2091.00
631.60	2138.00
631.85	2276.00
632.11	2485.00
632.36	2526.00
632.62	2483.00
632.87	2622.00
633.13	2705.00
633.38	2576.00
633.64	2392.00
633.89	2646.00
634.15	3150.00
634.40	3236.00
634.66	2885.00
634.91	2897.00
635.17	3066.00
635.42	3192.00
635.68	3306.00
635.93	3372.00
636.18	3703.00
636.44	3801.00
636.69	3541.00
636.95	3320.00
637.20	3490.00
637.46	3592.00
637.71	3596.00
637.97	3678.00
638.22	3601.00
638.48	3436.00
638.73	3462.00
638.99	3590.00
639.24	3704.00
639.50	3684.00
639.75	3899.00
640.01	3771.00
640.26	3283.00
640.52	3099.00
640.77	3179.00
641.03	3379.00
641.28	3539.00
641.54	3462.00
641.79	3119.00
642.04	2923.00
642.30	2763.00
642.55	2615.00
642.81	2633.00
643.06	2658.00
643.32	2555.00
643.57	2415.00
643.83	2312.00
644.08	2343.00
644.34	2458.00
644.59	2580.00
644.85	2526.00
645.10	2383.00
645.35	2182.00
645.61	2089.00
645.86	2015.00
646.12	1939.00
646.37	1864.00
646.63	1817.00
646.88	1747.00
647.14	1701.00
647.39	1658.00
647.65	1694.00
647.90	1712.00
648.15	1769.00
648.41	1658.00
648.66	1553.00
648.92	1484.00
649.17	1513.00
649.43	1521.00
649.68	1433.00
649.94	1364.00
650.19	1296.00
650.44	1307.00
650.70	1301.00
650.95	1234.00
651.21	1235.00
651.46	1235.00
651.72	1203.00
651.97	1172.00
652.23	1170.00
652.48	1191.00
652.73	1180.00
652.99	1139.00
653.24	1155.00
653.50	1138.00
653.75	1125.00
654.01	1090.00
654.26	1103.00
654.51	1086.00
654.77	1090.00
655.02	1081.00
655.28	1047.00
655.53	1031.00
655.79	1057.00
656.04	1045.00
656.29	1050.00
656.55	1056.00
656.80	1067.00
657.06	994.00
657.31	969.00
657.56	1000.00
657.82	1008.00
658.07	996.00
658.33	1025.00
658.58	1020.00
658.84	1046.00
659.09	1006.00
659.34	1015.00
659.60	1015.00
659.85	1012.00
660.11	965.00
660.36	953.00
660.61	959.00
660.87	940.00
661.12	928.00
661.38	953.00
661.63	984.00
661.88	999.00
662.14	989.00
662.39	963.00
662.65	995.00
662.90	1018.00
663.15	938.00
663.41	948.00
663.66	977.00
663.92	990.00
664.17	949.00
664.42	966.00
664.68	981.00
664.93	959.00
665.19	931.00
665.44	917.00
665.69	940.00
665.95	973.00
666.20	922.00
666.45	951.00
666.71	940.00
666.96	944.00
667.22	909.00
667.47	945.00
667.72	936.00
667.98	960.00
668.23	911.00
668.49	961.00
668.74	973.00
668.99	954.00
669.25	913.00
669.50	913.00
669.75	952.00
670.01	949.00
670.26	886.00
670.52	930.00
670.77	961.00
671.02	930.00
671.28	914.00
671.53	942.00
671.78	957.00
672.04	954.00
672.29	920.00
672.54	931.00
672.80	938.00
673.05	933.00
673.31	930.00
673.56	979.00
673.81	993.00
674.07	953.00
674.32	937.00
674.57	931.00
674.83	934.00
675.08	942.00
675.33	923.00
675.59	930.00
675.84	961.00
676.09	937.00
676.35	912.00
676.60	929.00
676.86	944.00
677.11	979.00
677.36	925.00
677.62	937.00
677.87	975.00
678.12	990.00
678.38	908.00
678.63	927.00
678.88	967.00
679.14	980.00
679.39	891.00
679.64	918.00
679.90	926.00
680.15	945.00
680.40	933.00
680.66	912.00
680.91	937.00
681.16	941.00
681.42	924.00
681.67	916.00
681.92	926.00
682.18	982.00
682.43	910.00
682.68	914.00
682.94	914.00
683.19	906.00
683.44	897.00
683.70	942.00
683.95	950.00
684.20	935.00
684.46	929.00
684.71	943.00
684.96	931.00
685.22	956.00
685.47	923.00
685.72	938.00
685.98	952.00
686.23	908.00
686.48	888.00
686.74	938.00
686.99	978.00
687.24	939.00
687.50	894.00
687.75	916.00
688.00	933.00
688.25	926.00
688.51	907.00
688.76	943.00
689.01	908.00
689.27	925.00
689.52	893.00
689.77	944.00
690.03	927.00
690.28	930.00
690.53	904.00
690.79	930.00
691.04	945.00
691.29	947.00
691.54	882.00
691.80	922.00
692.05	929.00
692.30	917.00
692.56	905.00
692.81	918.00
693.06	918.00
693.32	911.00
693.57	905.00
693.82	944.00
694.07	938.00
694.33	925.00
694.58	897.00
694.83	944.00
695.09	932.00
695.34	952.00
695.59	923.00
695.84	921.00
696.10	953.00
696.35	949.00
696.60	876.00
696.86	917.00
697.11	936.00
697.36	966.00
697.61	905.00
697.87	901.00
698.12	919.00
698.37	921.00
698.63	927.00
698.88	913.00
699.13	936.00
699.38	931.00
699.64	884.00
699.89	913.00
700.14	913.00
700.39	940.00
700.65	910.00
700.90	944.00
701.15	916.00
701.40	943.00
701.66	905.00
701.91	936.00
702.16	922.00
702.42	912.00
702.67	892.00
702.92	915.00
703.17	921.00
703.43	922.00
703.68	918.00
703.93	947.00
704.18	957.00
704.44	932.00
704.69	905.00
704.94	918.00
705.19	920.00
705.45	945.00
705.70	928.00
705.95	919.00
706.20	927.00
706.46	955.00
706.71	910.00
706.96	908.00
707.21	945.00
707.47	950.00
707.72	914.00
707.97	917.00
708.22	954.00
708.48	964.00
708.73	898.00
708.98	884.00
709.23	914.00
709.49	934.00
709.74	913.00
709.99	934.00
710.24	933.00
710.50	938.00
710.75	931.00
711.00	941.00
711.25	949.00
711.50	939.00
711.76	902.00
712.01	903.00
712.26	913.00
712.51	942.00
712.77	903.00
713.02	913.00
713.27	908.00
713.52	930.00
713.78	904.00
714.03	921.00
714.28	908.00
714.53	936.00
714.78	920.00
715.04	937.00
715.29	962.00
715.54	966.00
715.79	915.00
716.05	940.00
716.30	944.00
716.55	958.00
716.80	938.00
717.05	933.00
717.31	941.00
717.56	938.00
717.81	924.00
718.06	920.00
718.31	910.00
718.57	936.00
718.82	924.00
719.07	942.00
719.32	921.00
719.57	932.00
719.83	918.00
720.08	928.00
720.33	926.00
720.58	909.00
720.83	874.00
721.09	960.00
721.34	938.00
721.59	971.00
721.84	904.00
722.09	923.00
722.35	948.00
722.60	936.00
722.85	902.00
723.10	937.00
723.35	938.00
723.61	951.00
723.86	934.00
724.11	955.00
724.36	936.00
724.61	928.00
724.87	919.00
725.12	894.00
725.37	918.00
725.62	922.00
725.87	901.00
726.12	887.00
726.38	910.00
726.63	945.00
726.88	916.00
727.13	929.00
727.38	921.00
727.64	946.00
727.89	908.00
728.14	918.00
728.39	916.00
728.64	921.00
728.89	910.00
729.15	946.00
729.40	945.00
729.65	940.00
729.90	887.00
730.15	920.00
730.40	948.00
730.66	938.00
730.91	896.00
731.16	922.00
731.41	932.00
731.66	933.00
731.91	904.00
732.17	938.00
732.42	954.00
732.67	925.00
732.92	882.00
733.17	936.00
733.42	936.00
733.68	934.00
733.93	910.00
734.18	921.00
734.43	910.00
734.68	918.00
734.93	908.00
735.18	915.00
735.44	938.00
735.69	950.00
735.94	892.00
736.19	905.00
736.44	915.00
736.69	954.00
736.95	912.00
737.20	923.00
737.45	939.00
737.70	932.00
737.95	928.00
738.20	946.00
738.45	946.00
738.70	936.00
738.96	909.00
739.21	925.00
739.46	915.00
739.71	945.00
739.96	928.00
740.21	955.00
740.46	1005.00
740.72	971.00
740.97	909.00
741.22	942.00
741.47	912.00
741.72	958.00
741.97	906.00
742.22	924.00
742.47	933.00
742.73	937.00
742.98	894.00
743.23	903.00
743.48	905.00
743.73	931.00
743.98	906.00
744.23	923.00
744.48	949.00
744.74	922.00
744.99	896.00
745.24	944.00
745.49	928.00
745.74	951.00
745.99	902.00
746.24	915.00
746.49	915.00
746.74	915.00
747.00	921.00
747.25	913.00
747.50	893.00
747.75	898.00
748.00	878.00
748.25	906.00
748.50	907.00
748.75	948.00
749.00	942.00
749.26	970.00
749.51	948.00
749.76	942.00
750.01	897.00
750.26	911.00
750.51	961.00
750.76	952.00
751.01	917.00
751.26	926.00
751.51	943.00
751.77	949.00
752.02	913.00
752.27	911.00
752.52	930.00
752.77	938.00
753.02	918.00
753.27	934.00
753.52	916.00
753.77	917.00
754.02	896.00
754.27	913.00
754.52	910.00
754.78	945.00
755.03	921.00
755.28	932.00
755.53	932.00
755.78	924.00
756.03	888.00
756.28	923.00
756.53	921.00
756.78	930.00
757.03	913.00
757.28	937.00
757.53	948.00
757.79	901.00
758.04	874.00
758.29	945.00
758.54	950.00
758.79	939.00
759.04	889.00
759.29	908.00
759.54	916.00
759.79	928.00
760.04	911.00
760.29	921.00
760.54	914.00
760.79	938.00
761.04	886.00
761.29	901.00
761.55	912.00
761.80	934.00
762.05	892.00
762.30	915.00
762.55	919.00
762.80	941.00
763.05	931.00
763.30	936.00
763.55	968.00
763.80	935.00
764.05	885.00
764.30	928.00
764.55	943.00
764.80	931.00
765.05	896.00
765.30	927.00
765.55	932.00
765.80	922.00
766.05	893.00
766.30	918.00
766.56	924.00
766.81	936.00
767.06	923.00
767.31	930.00
767.56	919.00
767.81	929.00
768.06	910.00
768.31	939.00
768.56	920.00
768.81	968.00
769.06	907.00
769.31	914.00
769.56	917.00
769.81	962.00
770.06	900.00
770.31	889.00
770.56	924.00
770.81	910.00
771.06	879.00
771.31	931.00
771.56	921.00
771.81	944.00
772.06	897.00
772.31	928.00
772.56	939.00
772.81	939.00
773.06	902.00
773.31	924.00
773.56	926.00
773.81	883.00
774.06	884.00
774.31	920.00
774.56	949.00
774.81	965.00
775.06	920.00
775.31	938.00
775.56	945.00
775.81	926.00
776.06	886.00
776.31	919.00
776.56	921.00
776.82	941.00
777.07	909.00
777.32	917.00
777.57	929.00
777.82	957.00
778.07	896.00
778.32	902.00
778.57	931.00
778.82	941.00
779.07	901.00
779.32	913.00
779.57	889.00
779.82	923.00
780.07	899.00
780.32	915.00
780.56	924.00
780.81	959.00
781.06	896.00
781.31	909.00
781.56	957.00
781.81	951.00
782.06	905.00
782.31	935.00
782.56	913.00
782.81	955.00
783.06	911.00
783.31	915.00
783.56	919.00
783.81	936.00
784.06	901.00
784.31	931.00
784.56	911.00
784.81	967.00
785.06	927.00
785.31	939.00
785.56	907.00
785.81	908.00
786.06	881.00
786.31	927.00
786.56	909.00
786.81	918.00
787.06	925.00
787.31	946.00
787.56	917.00
787.81	923.00
788.06	887.00
788.31	916.00
788.56	915.00
788.81	951.00
789.06	920.00
789.31	916.00
789.56	928.00
789.81	922.00
790.06	888.00
790.31	949.00
790.56	922.00
790.80	913.00
791.05	893.00
791.30	904.00
791.55	904.00
791.80	922.00
792.05	905.00
792.30	913.00
792.55	914.00
792.80	933.00
793.05	880.00
793.30	894.00
793.55	918.00
793.80	933.00
794.05	901.00
794.30	929.00
794.55	925.00
794.80	950.00
795.05	892.00
795.30	897.00
795.54	902.00
795.79	936.00
796.04	889.00
796.29	924.00
796.54	926.00
796.79	948.00
797.04	911.00
797.29	932.00
797.54	955.00
797.79	944.00
798.04	925.00
798.29	914.00
798.54	887.00
798.79	910.00
799.04	889.00
799.29	921.00
799.53	926.00
799.78	927.00
800.03	917.00
800.28	906.00
800.53	912.00
800.78	966.00
801.03	906.00
801.28	904.00
801.53	909.00
801.78	957.00
802.03	893.00
802.28	918.00
802.52	952.00
802.77	947.00
803.02	918.00
803.27	938.00
803.52	910.00
803.77	928.00
804.02	919.00
804.27	947.00
804.52	942.00
804.77	970.00
805.02	942.00
805.27	950.00
805.51	936.00
805.76	940.00
806.01	901.00
806.26	913.00
806.51	911.00
806.76	958.00
807.01	921.00
807.26	897.00
807.51	925.00
807.76	909.00
808.00	893.00
808.25	928.00
808.50	954.00
808.75	918.00
809.00	893.00
809.25	915.00
809.50	919.00
809.75	934.00
810.00	927.00
810.24	911.00
810.49	862.00
810.74	904.00
810.99	904.00
811.24	922.00
811.49	930.00
811.74	941.00
811.99	896.00
812.24	930.00
812.48	904.00
812.73	912.00
812.98	873.00
813.23	894.00
813.48	924.00
813.73	921.00
813.98	869.00
814.23	905.00
814.47	898.00
814.72	906.00
814.97	890.00
815.22	926.00
815.47	892.00
815.72	902.00
815.97	885.00
816.22	903.00
816.46	914.00
816.71	950.00
816.96	923.00
817.21	931.00
817.46	921.00
817.71	941.00
817.96	908.00
818.20	881.00
818.45	884.00
818.70	919.00
818.95	892.00
819.20	918.00
819.45	925.00
819.70	924.00
819.94	876.00
820.19	906.00
820.44	921.00
820.69	928.00
820.94	909.00
821.19	913.00
821.44	970.00
821.68	1001.00
821.93	919.00
822.18	926.00
822.43	945.00
822.68	960.00
822.93	924.00
823.17	933.00
823.42	927.00
823.67	913.00
823.92	896.00
824.17	913.00
824.42	912.00
824.67	940.00
824.91	920.00
825.16	910.00
825.41	921.00
825.66	921.00
825.91	882.00
826.16	916.00
826.40	911.00
826.65	935.00
826.90	914.00
827.15	917.00
827.40	924.00
827.65	958.00
827.89	870.00
828.14	893.00
828.39	918.00
828.64	937.00
828.89	888.00
829.13	906.00
829.38	901.00
829.63	928.00
829.88	885.00
830.13	877.00
830.38	900.00
830.62	917.00
830.87	904.00
831.12	921.00
831.37	933.00
831.62	960.00
831.86	896.00
832.11	902.00
832.36	883.00
832.61	940.00
832.86	916.00
833.10	938.00
833.35	935.00
833.60	952.00
833.85	896.00
834.10	933.00
834.35	960.00
834.59	967.00
834.84	924.00
835.09	944.00
835.34	911.00
835.59	918.00
835.83	924.00
836.08	917.00
836.33	936.00
836.58	926.00
836.83	907.00
837.07	929.00
837.32	940.00
837.57	934.00
837.82	927.00
838.06	924.00
838.31	938.00
838.56	954.00
838.81	900.00
839.06	919.00
839.30	916.00
839.55	930.00
839.80	914.00
840.05	932.00
840.30	950.00
840.54	957.00
840.79	906.00
841.04	927.00
841.29	928.00
841.53	947.00
841.78	903.00
842.03	890.00
842.28	893.00
842.53	910.00
842.77	907.00
843.02	925.00
843.27	925.00
843.52	941.00
843.76	907.00
844.01	945.00
844.26	921.00
844.51	938.00
844.75	893.00
845.00	898.00
845.25	923.00
845.50	933.00
845.75	913.00
845.99	939.00
846.24	937.00
846.49	953.00
846.74	894.00
846.98	897.00
847.23	907.00
847.48	928.00
847.73	893.00
847.97	913.00
848.22	966.00
848.47	948.00
848.72	898.00
848.96	905.00
849.21	930.00
849.46	900.00
849.71	904.00
849.95	903.00
850.20	900.00
850.45	925.00
850.70	903.00
850.94	933.00
851.19	908.00
851.44	907.00
851.69	875.00
851.93	907.00
852.18	939.00
852.43	937.00
852.68	927.00
852.92	952.00
853.17	968.00
853.42	950.00
853.66	927.00
853.91	954.00
854.16	908.00
854.41	974.00
854.65	904.00
854.90	927.00
855.15	928.00
855.40	935.00
855.64	917.00
855.89	915.00
856.14	912.00
856.39	917.00
856.63	898.00
856.88	907.00
857.13	896.00
857.37	938.00
857.62	891.00
857.87	883.00
858.12	909.00
858.36	944.00
858.61	874.00
858.86	909.00
859.10	953.00
859.35	938.00
859.60	906.00
859.85	893.00
860.09	896.00
860.34	933.00
860.59	920.00
860.83	922.00
861.08	912.00
861.33	954.00
861.58	908.00
861.82	907.00
862.07	921.00
862.32	931.00
862.56	896.00
862.81	897.00
863.06	921.00
863.30	923.00
863.55	909.00
863.80	898.00
864.05	913.00
864.29	930.00
864.54	917.00
864.79	920.00
865.03	934.00
865.28	953.00
865.53	910.00
865.77	880.00
866.02	931.00
866.27	960.00
866.51	908.00
866.76	895.00
867.01	906.00
867.26	939.00
867.50	904.00
867.75	889.00
868.00	919.00
868.24	937.00
868.49	895.00
868.74	911.00
868.98	916.00
869.23	931.00
869.48	932.00
869.72	909.00
869.97	907.00
870.22	942.00
870.46	913.00
870.71	922.00
870.96	917.00
871.20	934.00
871.45	890.00
871.70	914.00
871.94	957.00
872.19	964.00
872.44	935.00
872.68	906.00
872.93	913.00
873.18	929.00
873.42	901.00
873.67	943.00
873.92	946.00
874.16	920.00
874.41	913.00
874.66	927.00
874.90	937.00
875.15	953.00
875.40	921.00
875.64	928.00
875.89	917.00
876.14	940.00
876.38	908.00
876.63	912.00
876.88	944.00
877.12	945.00
877.37	914.00
877.62	939.00
877.86	932.00
878.11	941.00
878.36	885.00
878.60	915.00
878.85	918.00
879.09	935.00
879.34	910.00
879.59	927.00
879.83	961.00
880.08	966.00
880.33	927.00
880.57	946.00
880.82	936.00
881.07	926.00
881.31	905.00
881.56	927.00
881.80	906.00
882.05	926.00
882.30	867.00
882.54	901.00
882.79	938.00
883.04	973.00
883.28	924.00
883.53	913.00
883.77	934.00
884.02	957.00
884.27	889.00
884.51	902.00
884.76	920.00
885.01	953.00
885.25	882.00
885.50	934.00
885.74	938.00
885.99	947.00
886.24	893.00
886.48	913.00
886.73	952.00
886.98	990.00
887.22	945.00
887.47	925.00
887.71	929.00
887.96	929.00
888.21	923.00
888.45	907.00
888.70	905.00
888.94	954.00
889.19	894.00
889.44	912.00
889.68	932.00
889.93	950.00
890.17	908.00
890.42	898.00
890.67	939.00
890.91	1009.00
891.16	903.00
891.40	907.00
891.65	908.00
891.90	938.00
892.14	882.00
892.39	916.00
892.63	938.00
892.88	965.00
893.13	921.00
893.37	926.00
893.62	918.00
893.86	945.00
894.11	908.00
894.36	912.00
894.60	902.00
894.85	907.00
895.09	908.00
895.34	938.00
895.59	934.00
895.83	930.00
896.08	892.00
896.32	887.00
896.57	918.00
896.81	923.00
897.06	905.00
897.31	907.00
897.55	928.00
897.80	915.00
898.04	884.00
898.29	915.00
898.53	912.00
898.78	934.00
899.03	913.00
899.27	918.00
899.52	938.00
899.76	953.00
900.01	901.00
900.25	921.00
900.50	915.00
900.75	919.00
900.99	909.00
901.24	979.00
901.48	932.00
901.73	934.00
901.97	905.00
902.22	924.00
902.47	945.00
902.71	933.00
902.96	875.00
903.20	910.00
903.45	941.00
903.69	932.00
903.94	919.00
904.18	886.00
904.43	907.00
904.68	918.00
904.92	884.00
905.17	913.00
905.41	935.00
905.66	938.00
905.90	928.00
906.15	922.00
906.39	923.00
906.64	926.00
906.88	887.00
907.13	898.00
907.38	936.00
907.62	952.00
907.87	901.00
908.11	946.00
908.36	902.00
908.60	914.00
908.85	861.00
909.09	900.00
909.34	913.00
909.58	931.00
909.83	901.00
910.07	916.00
910.32	978.00
910.56	977.00
910.81	902.00
911.06	933.00
911.30	940.00
911.55	916.00
911.79	892.00
912.04	908.00
912.28	907.00
912.53	936.00
912.77	915.00
913.02	907.00
913.26	914.00
913.51	918.00
913.75	911.00
914.00	909.00
914.24	920.00
914.49	922.00
914.73	897.00
914.98	922.00
915.22	953.00
915.47	928.00
915.71	896.00
915.96	922.00
916.20	941.00
916.45	912.00
916.69	891.00
916.94	901.00
917.18	920.00
917.43	933.00
917.67	889.00
917.92	897.00
918.16	942.00
918.41	944.00
918.65	891.00
918.90	889.00
919.14	890.00
919.39	912.00
919.63	893.00
919.88	895.00
920.12	931.00
920.37	926.00
920.61	884.00
920.86	926.00
921.10	937.00
921.35	916.00
921.59	900.00
921.84	933.00
922.08	934.00
922.33	953.00
922.57	878.00
922.82	883.00
923.06	921.00
923.31	933.00
923.55	886.00
923.80	926.00
924.04	909.00
924.29	939.00
924.53	902.00
924.78	903.00
925.02	896.00
925.27	920.00
925.51	911.00
925.76	922.00
926.00	921.00
926.25	930.00
926.49	911.00
926.73	916.00
926.98	949.00
927.22	945.00
927.47	915.00
927.71	903.00
927.96	930.00
928.20	935.00
928.45	918.00
928.69	942.00
928.94	932.00
929.18	918.00
929.43	928.00
929.67	927.00
929.91	946.00
930.16	935.00
930.40	882.00
930.65	881.00
930.89	918.00
931.14	947.00
931.38	914.00
931.63	947.00
931.87	934.00
932.12	923.00
932.36	889.00
932.60	905.00
932.85	928.00
933.09	922.00
933.34	880.00
933.58	931.00
933.83	916.00
934.07	920.00
934.32	908.00
934.56	940.00
934.80	971.00
935.05	983.00
935.29	923.00
935.54	943.00
935.78	927.00
936.03	935.00
936.27	872.00
936.52	897.00
936.76	923.00
937.00	926.00
937.25	898.00
937.49	932.00
937.74	948.00
937.98	944.00
938.23	896.00
938.47	898.00
938.71	908.00
938.96	901.00
939.20	880.00
939.45	897.00
939.69	920.00
939.94	938.00
940.18	892.00
940.42	914.00
940.67	921.00
940.91	917.00
941.16	907.00
941.40	885.00
941.64	919.00
941.89	938.00
942.13	897.00
942.38	927.00
942.62	1009.00
942.87	964.00
943.11	938.00
943.35	923.00
943.60	934.00
943.84	964.00
944.09	931.00
944.33	938.00
944.57	941.00
944.82	927.00
945.06	900.00
945.31	940.00
945.55	910.00
945.79	946.00
946.04	922.00
946.28	918.00
946.53	932.00
946.77	928.00
947.01	880.00
947.26	924.00
947.50	918.00
947.75	937.00
947.99	914.00
948.23	924.00
948.48	936.00
948.72	941.00
948.97	912.00
949.21	915.00
949.45	917.00
949.70	956.00
949.94	912.00
950.18	911.00
950.43	931.00
950.67	947.00
950.92	896.00
951.16	892.00
951.40	924.00
951.65	943.00
951.89	918.00
952.13	921.00
952.38	938.00
952.62	933.00
952.87	905.00
953.11	941.00
953.35	949.00
953.60	923.00
953.84	859.00
954.08	900.00
954.33	909.00
954.57	921.00
954.82	911.00
955.06	902.00
955.30	905.00
955.55	905.00
955.79	905.00
956.03	904.00
956.28	912.00
956.52	907.00
956.76	916.00
957.01	927.00
957.25	920.00
957.50	925.00
957.74	886.00
957.98	899.00
958.23	917.00
958.47	919.00
958.71	916.00
958.96	937.00
959.20	954.00
959.44	941.00
959.69	897.00
959.93	926.00
960.17	939.00
960.42	946.00
960.66	922.00
960.90	916.00
961.15	914.00
961.39	920.00
961.64	882.00
961.88	891.00
962.12	961.00
962.37	939.00
962.61	901.00
962.85	904.00
963.10	928.00
963.34	952.00
963.58	909.00
963.83	930.00
964.07	949.00
964.31	965.00
964.56	931.00
964.80	927.00
965.04	922.00
965.29	912.00
965.53	883.00
965.77	888.00
966.02	877.00
966.26	908.00
966.50	894.00
966.74	938.00
966.99	962.00
967.23	940.00
967.47	900.00
967.72	902.00
967.96	926.00
968.20	928.00
968.45	893.00
968.69	896.00
968.93	917.00
969.18	926.00
969.42	937.00
969.66	932.00
969.91	932.00
970.15	947.00
970.39	897.00
970.64	925.00
970.88	939.00
971.12	932.00
971.36	905.00
971.61	889.00
971.85	918.00
972.09	926.00
972.34	900.00
972.58	914.00
972.82	925.00
973.07	964.00
973.31	889.00
973.55	902.00
973.79	942.00
974.04	971.00
974.28	914.00
974.52	912.00
974.77	907.00
975.01	932.00
975.25	919.00
975.50	920.00
975.74	935.00
975.98	953.00
976.22	918.00
976.47	903.00
976.71	925.00
976.95	925.00
977.20	927.00
977.44	918.00
977.68	917.00
977.92	936.00
978.17	906.00
978.41	912.00
978.65	943.00
978.90	928.00
979.14	924.00
979.38	926.00
979.62	940.00
979.87	917.00
980.11	883.00
980.35	897.00
980.59	920.00
980.84	932.00
981.08	890.00
981.32	897.00
981.57	943.00
981.81	940.00
982.05	909.00
982.29	904.00
982.54	931.00
982.78	931.00
983.02	885.00
983.26	910.00
983.51	952.00
983.75	947.00
983.99	880.00
984.23	921.00
984.48	922.00
984.72	936.00
984.96	888.00
985.20	894.00
985.45	980.00
985.69	953.00
985.93	916.00
986.17	921.00
986.42	921.00
986.66	917.00
986.90	868.00
987.14	891.00
987.39	918.00
987.63	915.00
987.87	886.00
988.11	893.00
988.36	938.00
988.60	934.00
988.84	913.00
989.08	896.00
989.33	934.00
989.57	941.00
989.81	883.00
990.05	888.00
990.30	902.00
990.54	889.00
990.78	900.00
991.02	905.00
991.27	932.00
991.51	927.00
991.75	898.00
991.99	928.00
992.23	910.00
992.48	897.00
992.72	881.00
992.96	910.00
993.20	911.00
993.45	922.00
993.69	931.00
993.93	900.00
994.17	937.00
994.41	924.00
994.66	880.00
994.90	908.00
995.14	948.00
995.38	932.00
995.63	903.00
995.87	909.00
996.11	960.00
996.35	957.00
996.59	878.00
996.84	903.00
997.08	932.00
997.32	917.00
997.56	892.00
997.80	881.00
998.05	897.00
998.29	905.00
998.53	896.00
998.77	910.00
999.01	923.00
999.26	927.00
999.50	893.00
999.74	881.00
999.98	930.00
1000.22	947.00
1000.47	903.00
1000.71	907.00
1000.95	934.00
1001.19	934.00
1001.43	890.00
1001.68	913.00
1001.92	905.00
1002.16	904.00
1002.40	888.00
1002.64	920.00
1002.89	914.00
1003.13	918.00
1003.37	917.00
1003.61	897.00
1003.85	922.00
1004.10	913.00
1004.34	889.00
1004.58	893.00
1004.82	928.00
1005.06	923.00
1005.30	889.00
1005.55	903.00
1005.79	934.00
1006.03	927.00
1006.27	903.00
1006.51	916.00
1006.76	916.00
1007.00	950.00
1007.24	909.00
1007.48	923.00
1007.72	936.00
1007.96	924.00
1008.21	904.00
1008.45	916.00
1008.69	933.00
1008.93	947.00
1009.17	909.00
1009.41	921.00
1009.66	943.00
1009.90	909.00
1010.14	890.00
1010.38	915.00
1010.62	931.00
1010.86	948.00
1011.10	914.00
1011.35	913.00
1011.59	907.00
1011.83	888.00
1012.07	889.00
1012.31	923.00
1012.55	933.00
1012.80	935.00
1013.04	922.00
1013.28	920.00
1013.52	919.00
1013.76	933.00
1014.00	896.00
1014.24	910.00
1014.49	934.00
1014.73	960.00
1014.97	942.00
1015.21	944.00
1015.45	967.00
1015.69	941.00
1015.93	914.00
1016.18	899.00
1016.42	955.00
1016.66	950.00
1016.90	881.00
1017.14	885.00
1017.38	912.00
1017.62	930.00
1017.87	919.00
1018.11	925.00
1018.35	917.00
1018.59	923.00
1018.83	883.00
1019.07	913.00
1019.31	941.00
1019.55	947.00
1019.80	896.00
1020.04	899.00
1020.28	916.00
1020.52	937.00
1020.76	892.00
1021.00	880.00
1021.24	922.00
1021.48	908.00
1021.73	916.00
1021.97	922.00
1022.21	924.00
1022.45	925.00
1022.69	889.00
1022.93	890.00
1023.17	937.00
1023.41	958.00
1023.65	920.00
1023.90	937.00
1024.14	939.00
1024.38	912.00
1024.62	873.00
1024.86	912.00
1025.10	933.00
1025.34	934.00
1025.58	889.00
1025.82	892.00
1026.07	945.00
1026.31	934.00
1026.55	900.00
1026.79	898.00
1027.03	920.00
1027.27	945.00
1027.51	889.00
1027.75	878.00
1027.99	906.00
1028.23	962.00
1028.47	938.00
1028.72	908.00
1028.96	930.00
1029.20	938.00
1029.44	922.00
1029.68	909.00
1029.92	908.00
1030.16	933.00
1030.40	883.00
1030.64	908.00
1030.88	912.00
1031.12	907.00
1031.37	880.00
1031.61	906.00
1031.85	930.00
1032.09	938.00
1032.33	911.00
1032.57	960.00
1032.81	922.00
1033.05	940.00
1033.29	929.00
1033.53	910.00
1033.77	958.00
1034.01	956.00
1034.25	925.00
1034.50	916.00
1034.74	941.00
1034.98	943.00
1035.22	909.00
1035.46	927.00
1035.70	967.00
1035.94	947.00
1036.18	897.00
1036.42	904.00
1036.66	904.00
1036.90	909.00
1037.14	887.00
1037.38	905.00
1037.62	931.00
1037.86	920.00
1038.10	916.00
1038.35	910.00
1038.59	924.00
1038.83	939.00
1039.07	926.00
1039.31	938.00
1039.55	917.00
1039.79	922.00
1040.03	884.00
1040.27	886.00
1040.51	932.00
1040.75	963.00
1040.99	906.00
1041.23	922.00
1041.47	922.00
1041.71	954.00
1041.95	904.00
1042.19	889.00
1042.43	951.00
1042.67	981.00
1042.91	914.00
1043.15	924.00
1043.39	958.00
1043.64	942.00
1043.88	900.00
1044.12	926.00
1044.36	985.00
1044.60	961.00
1044.84	926.00
1045.08	914.00
1045.32	938.00
1045.56	940.00
1045.80	925.00
1046.04	911.00
1046.28	957.00
1046.52	941.00
1046.76	889.00
1047.00	885.00
1047.24	936.00
1047.48	925.00
1047.72	911.00
1047.96	913.00
1048.20	940.00
1048.44	914.00
1048.68	878.00
1048.92	922.00
1049.16	918.00
1049.40	923.00
1049.64	908.00
1049.88	928.00
1050.12	941.00
1050.36	950.00
1050.60	926.00
1050.84	921.00
1051.08	919.00
1051.32	924.00
1051.56	904.00
1051.80	898.00
1052.04	916.00
1052.28	960.00
1052.52	888.00
1052.76	885.00
1053.00	897.00
1053.24	921.00
1053.48	884.00
1053.72	905.00
1053.96	917.00
1054.20	945.00
1054.44	913.00
1054.68	922.00
1054.92	938.00
1055.16	900.00
1055.40	901.00
1055.64	936.00
1055.88	965.00
1056.12	979.00
1056.36	876.00
1056.60	891.00
1056.84	949.00
1057.08	952.00
1057.32	916.00
1057.56	908.00
1057.80	908.00
1058.04	932.00
1058.28	911.00
1058.52	908.00
1058.76	945.00
1059.00	948.00
1059.24	880.00
1059.48	891.00
1059.72	948.00
1059.96	933.00
1060.20	917.00
1060.44	935.00
1060.68	966.00
1060.92	936.00
1061.16	886.00
1061.40	900.00
1061.64	921.00
1061.88	916.00
1062.11	897.00
1062.35	893.00
1062.59	916.00
1062.83	947.00
1063.07	920.00
1063.31	899.00
1063.55	906.00
1063.79	957.00
1064.03	905.00
1064.27	900.00
1064.51	924.00
1064.75	932.00
1064.99	909.00
1065.23	905.00
1065.47	906.00
1065.71	934.00
1065.95	907.00
1066.19	914.00
1066.43	948.00
1066.67	935.00
1066.91	907.00
1067.15	902.00
1067.38	902.00
1067.62	920.00
1067.86	894.00
1068.10	925.00
1068.34	970.00
1068.58	972.00
1068.82	904.00
1069.06	880.00
1069.30	921.00
1069.54	953.00
1069.78	933.00
1070.02	910.00
1070.26	950.00
1070.50	977.00
1070.74	897.00
1070.98	934.00
1071.21	946.00
1071.45	935.00
1071.69	901.00
1071.93	916.00
1072.17	926.00
1072.41	935.00
1072.65	924.00
1072.89	950.00
1073.13	937.00
1073.37	918.00
1073.61	896.00
1073.85	906.00
1074.09	897.00
1074.32	897.00
1074.56	903.00
1074.80	968.00
1075.04	1205.00
1075.28	1042.00
1075.52	921.00
1075.76	932.00
1076.00	955.00
1076.24	946.00
1076.48	930.00
1076.72	924.00
1076.96	946.00
1077.19	923.00
1077.43	894.00
1077.67	927.00
1077.91	929.00
1078.15	914.00
1078.39	911.00
1078.63	910.00
1078.87	940.00
1079.11	929.00
1079.35	886.00
1079.58	894.00
1079.82	932.00
1080.06	932.00
1080.30	898.00
1080.54	933.00
1080.78	949.00
1081.02	921.00
1081.26	924.00
1081.50	941.00
1081.74	925.00
1081.97	938.00
1082.21	906.00
1082.45	933.00
1082.69	932.00
1082.93	916.00
1083.17	916.00
1083.41	903.00
1083.65	945.00
1083.88	958.00
1084.12	943.00
1084.36	933.00
1084.60	945.00
1084.84	952.00
1085.08	890.00
1085.32	910.00
1085.56	945.00
1085.80	926.00
1086.03	897.00
1086.27	892.00
1086.51	922.00
1086.75	954.00
1086.99	900.00
1087.23	896.00
1087.47	929.00
1087.70	913.00
1087.94	923.00
1088.18	960.00
1088.42	984.00
1088.66	936.00
1088.90	880.00
1089.14	915.00
1089.38	921.00
1089.61	956.00
1089.85	916.00
1090.09	896.00
1090.33	949.00
1090.57	952.00
1090.81	880.00
1091.05	894.00
1091.28	927.00
1091.52	936.00
1091.76	897.00
1092.00	926.00
1092.24	946.00
1092.48	957.00
1092.71	901.00
1092.95	922.00
1093.19	938.00
1093.43	921.00
1093.67	885.00
1093.91	900.00
1094.15	926.00
1094.38	951.00
1094.62	902.00
1094.86	909.00
1095.10	912.00
1095.34	928.00
1095.58	892.00
1095.81	914.00
1096.05	953.00
1096.29	972.00
1096.53	887.00
1096.77	912.00
1097.01	910.00
1097.24	948.00
1097.48	904.00
1097.72	900.00
1097.96	931.00
1098.20	943.00
1098.44	905.00
1098.67	895.00
1098.91	918.00
1099.15	933.00
1099.39	887.00
1099.63	913.00
1099.86	940.00
1100.10	913.00
1100.34	907.00
1100.58	906.00
1100.82	924.00
1101.06	922.00
1101.29	885.00
1101.53	904.00
1101.77	928.00
1102.01	910.00
1102.25	896.00
1102.48	924.00
1102.72	984.00
1102.96	938.00
1103.20	877.00
1103.44	899.00
1103.67	912.00
1103.91	938.00
1104.15	892.00
1104.39	902.00
1104.63	928.00
1104.86	911.00
1105.10	889.00
1105.34	938.00
1105.58	927.00
1105.82	921.00
1106.05	900.00
1106.29	915.00
1106.53	919.00
1106.77	946.00
1107.01	881.00
1107.24	923.00
1107.48	962.00
1107.72	956.00
1107.96	883.00
1108.20	911.00
1108.43	936.00
1108.67	927.00
1108.91	912.00
1109.15	907.00
1109.39	924.00
1109.62	910.00
1109.86	885.00
1110.10	907.00
1110.34	967.00
1110.57	973.00
1110.81	903.00
1111.05	921.00
1111.29	966.00
1111.53	964.00
1111.76	912.00
1112.00	943.00
1112.24	930.00
1112.48	926.00
1112.71	882.00
1112.95	891.00
1113.19	944.00
1113.43	939.00
1113.66	893.00
1113.90	929.00
1114.14	935.00
1114.38	948.00
1114.62	900.00
1114.85	933.00
1115.09	950.00
1115.33	972.00
1115.57	912.00
1115.80	909.00
1116.04	930.00
1116.28	922.00
1116.52	905.00
1116.75	902.00
1116.99	935.00
1117.23	957.00
1117.47	928.00
1117.70	933.00
1117.94	991.00
1118.18	938.00
1118.42	907.00
1118.65	929.00
1118.89	945.00
1119.13	937.00
1119.37	891.00
1119.60	915.00
1119.84	943.00
>>>>>End Processed Spectral Data<<<<<
