SpectraSuite Data File
++++++++++++++++++++++++++++++++++++
Date: Fri Nov 29 15:21:31 CET 2024
User: student
Dark Spectrum Present: No
Reference Spectrum Present: No
Number of Sampled Component Spectra: 1
Spectrometers: HR4C155
Integration Time (usec): 100000 (HR4C155)
Spectra Averaged: 1 (HR4C155)
Boxcar Smoothing: 0 (HR4C155)
Correct for Electrical Dark: No (HR4C155)
Strobe/Lamp Enabled: No (HR4C155)
Correct for Detector Non-linearity: No (HR4C155)
Correct for Stray Light: No (HR4C155)
Number of Pixels in Processed Spectrum: 3648
>>>>>Begin Processed Spectral Data<<<<<
195.39	748.00
195.66	748.00
195.93	748.00
196.20	711.00
196.46	753.00
196.73	879.00
197.00	869.00
197.27	871.00
197.54	892.00
197.81	909.00
198.08	913.00
198.35	936.00
198.61	942.00
198.88	923.00
199.15	906.00
199.42	907.00
199.69	941.00
199.96	913.00
200.23	919.00
200.49	922.00
200.76	953.00
201.03	945.00
201.30	927.00
201.57	984.00
201.84	989.00
202.11	950.00
202.38	972.00
202.64	962.00
202.91	965.00
203.18	909.00
203.45	990.00
203.72	1060.00
203.99	986.00
204.25	990.00
204.52	969.00
204.79	991.00
205.06	988.00
205.33	933.00
205.60	959.00
205.87	984.00
206.13	979.00
206.40	942.00
206.67	952.00
206.94	992.00
207.21	985.00
207.48	945.00
207.75	933.00
208.01	987.00
208.28	988.00
208.55	944.00
208.82	957.00
209.09	951.00
209.36	986.00
209.62	953.00
209.89	961.00
210.16	996.00
210.43	1033.00
210.70	941.00
210.97	961.00
211.23	1011.00
211.50	1016.00
211.77	945.00
212.04	961.00
212.31	969.00
212.58	989.00
212.84	957.00
213.11	950.00
213.38	914.00
213.65	959.00
213.92	931.00
214.18	943.00
214.45	1011.00
214.72	1006.00
214.99	928.00
215.26	947.00
215.53	935.00
215.79	971.00
216.06	965.00
216.33	979.00
216.60	950.00
216.87	981.00
217.13	921.00
217.40	921.00
217.67	958.00
217.94	999.00
218.21	913.00
218.48	962.00
218.74	1041.00
219.01	977.00
219.28	913.00
219.55	925.00
219.82	959.00
220.08	977.00
220.35	944.00
220.62	950.00
220.89	1007.00
221.16	1026.00
221.42	959.00
221.69	966.00
221.96	978.00
222.23	995.00
222.50	980.00
222.76	1003.00
223.03	981.00
223.30	956.00
223.57	926.00
223.84	921.00
224.10	936.00
224.37	977.00
224.64	935.00
224.91	932.00
225.18	972.00
225.44	995.00
225.71	948.00
225.98	981.00
226.25	1000.00
226.51	991.00
226.78	926.00
227.05	937.00
227.32	966.00
227.59	979.00
227.85	955.00
228.12	957.00
228.39	994.00
228.66	996.00
228.92	979.00
229.19	959.00
229.46	977.00
229.73	946.00
230.00	935.00
230.26	967.00
230.53	999.00
230.80	975.00
231.07	909.00
231.33	927.00
231.60	969.00
231.87	987.00
232.14	947.00
232.41	985.00
232.67	973.00
232.94	984.00
233.21	942.00
233.48	958.00
233.74	964.00
234.01	935.00
234.28	923.00
234.55	951.00
234.81	941.00
235.08	981.00
235.35	952.00
235.62	937.00
235.88	959.00
236.15	990.00
236.42	963.00
236.69	954.00
236.95	982.00
237.22	957.00
237.49	945.00
237.76	943.00
238.02	988.00
238.29	1002.00
238.56	937.00
238.83	948.00
239.09	947.00
239.36	1003.00
239.63	937.00
239.90	970.00
240.16	1013.00
240.43	1043.00
240.70	955.00
240.97	955.00
241.23	955.00
241.50	968.00
241.77	953.00
242.04	941.00
242.30	923.00
242.57	951.00
242.84	932.00
243.11	936.00
243.37	933.00
243.64	1002.00
243.91	951.00
244.18	951.00
244.44	938.00
244.71	942.00
244.98	960.00
245.24	941.00
245.51	966.00
245.78	987.00
246.05	943.00
246.31	931.00
246.58	965.00
246.85	947.00
247.12	936.00
247.38	970.00
247.65	973.00
247.92	1002.00
248.18	954.00
248.45	958.00
248.72	962.00
248.99	969.00
249.25	915.00
249.52	942.00
249.79	978.00
250.05	966.00
250.32	955.00
250.59	940.00
250.86	946.00
251.12	955.00
251.39	924.00
251.66	958.00
251.92	985.00
252.19	984.00
252.46	931.00
252.73	976.00
252.99	983.00
253.26	1009.00
253.53	940.00
253.79	957.00
254.06	973.00
254.33	949.00
254.60	918.00
254.86	937.00
255.13	981.00
255.40	1009.00
255.66	951.00
255.93	955.00
256.20	964.00
256.46	988.00
256.73	933.00
257.00	957.00
257.26	973.00
257.53	986.00
257.80	952.00
258.07	974.00
258.33	1012.00
258.60	988.00
258.87	942.00
259.13	954.00
259.40	962.00
259.67	998.00
259.93	954.00
260.20	963.00
260.47	989.00
260.73	972.00
261.00	947.00
261.27	962.00
261.53	976.00
261.80	961.00
262.07	928.00
262.34	959.00
262.60	935.00
262.87	946.00
263.14	917.00
263.40	958.00
263.67	934.00
263.94	947.00
264.20	943.00
264.47	922.00
264.74	923.00
265.00	939.00
265.27	912.00
265.54	929.00
265.80	974.00
266.07	1007.00
266.34	948.00
266.60	955.00
266.87	976.00
267.14	978.00
267.40	925.00
267.67	922.00
267.94	964.00
268.20	971.00
268.47	926.00
268.74	926.00
269.00	952.00
269.27	947.00
269.54	900.00
269.80	922.00
270.07	982.00
270.33	953.00
270.60	953.00
270.87	959.00
271.13	951.00
271.40	949.00
271.67	889.00
271.93	892.00
272.20	955.00
272.47	926.00
272.73	898.00
273.00	945.00
273.27	957.00
273.53	996.00
273.80	928.00
274.07	930.00
274.33	948.00
274.60	970.00
274.86	924.00
275.13	942.00
275.40	939.00
275.66	989.00
275.93	935.00
276.20	938.00
276.46	963.00
276.73	940.00
277.00	954.00
277.26	951.00
277.53	982.00
277.79	977.00
278.06	935.00
278.33	980.00
278.59	972.00
278.86	930.00
279.13	923.00
279.39	969.00
279.66	987.00
279.93	989.00
280.19	925.00
280.46	938.00
280.72	949.00
280.99	985.00
281.26	953.00
281.52	938.00
281.79	965.00
282.05	985.00
282.32	961.00
282.59	936.00
282.85	987.00
283.12	985.00
283.39	952.00
283.65	947.00
283.92	955.00
284.18	970.00
284.45	947.00
284.72	948.00
284.98	952.00
285.25	948.00
285.51	959.00
285.78	964.00
286.05	976.00
286.31	978.00
286.58	921.00
286.84	924.00
287.11	949.00
287.38	963.00
287.64	967.00
287.91	932.00
288.17	962.00
288.44	973.00
288.71	907.00
288.97	944.00
289.24	980.00
289.50	958.00
289.77	955.00
290.04	924.00
290.30	941.00
290.57	989.00
290.83	927.00
291.10	925.00
291.37	945.00
291.63	943.00
291.90	973.00
292.16	956.00
292.43	974.00
292.70	953.00
292.96	903.00
293.23	904.00
293.49	920.00
293.76	972.00
294.02	940.00
294.29	940.00
294.56	969.00
294.82	981.00
295.09	918.00
295.35	929.00
295.62	983.00
295.89	996.00
296.15	923.00
296.42	927.00
296.68	946.00
296.95	956.00
297.21	949.00
297.48	944.00
297.75	966.00
298.01	1006.00
298.28	944.00
298.54	960.00
298.81	955.00
299.07	965.00
299.34	917.00
299.61	940.00
299.87	974.00
300.14	946.00
300.40	971.00
300.67	964.00
300.93	963.00
301.20	994.00
301.46	932.00
301.73	936.00
302.00	964.00
302.26	936.00
302.53	950.00
302.79	946.00
303.06	964.00
303.32	1012.00
303.59	938.00
303.85	937.00
304.12	941.00
304.39	962.00
304.65	931.00
304.92	946.00
305.18	955.00
305.45	978.00
305.71	950.00
305.98	956.00
306.24	949.00
306.51	942.00
306.77	923.00
307.04	941.00
307.31	979.00
307.57	994.00
307.84	919.00
308.10	930.00
308.37	931.00
308.63	950.00
308.90	922.00
309.16	937.00
309.43	980.00
309.69	976.00
309.96	961.00
310.22	959.00
310.49	958.00
310.76	974.00
311.02	926.00
311.29	945.00
311.55	938.00
311.82	953.00
312.08	954.00
312.35	952.00
312.61	982.00
312.88	978.00
313.14	931.00
313.41	933.00
313.67	933.00
313.94	965.00
314.20	957.00
314.47	954.00
314.73	943.00
315.00	940.00
315.26	917.00
315.53	967.00
315.79	982.00
316.06	971.00
316.32	929.00
316.59	945.00
316.85	953.00
317.12	964.00
317.39	905.00
317.65	908.00
317.92	945.00
318.18	983.00
318.45	933.00
318.71	986.00
318.98	972.00
319.24	960.00
319.51	953.00
319.77	942.00
320.04	965.00
320.30	960.00
320.57	935.00
320.83	930.00
321.10	922.00
321.36	940.00
321.63	908.00
321.89	940.00
322.16	986.00
322.42	980.00
322.69	936.00
322.95	930.00
323.22	975.00
323.48	988.00
323.75	930.00
324.01	944.00
324.28	963.00
324.54	971.00
324.80	941.00
325.07	957.00
325.33	969.00
325.60	948.00
325.86	918.00
326.13	941.00
326.39	930.00
326.66	940.00
326.92	880.00
327.19	934.00
327.45	1010.00
327.72	1022.00
327.98	942.00
328.25	937.00
328.51	967.00
328.78	960.00
329.04	913.00
329.31	935.00
329.57	950.00
329.84	941.00
330.10	907.00
330.37	938.00
330.63	967.00
330.89	981.00
331.16	946.00
331.42	947.00
331.69	987.00
331.95	961.00
332.22	946.00
332.48	975.00
332.75	973.00
333.01	941.00
333.28	925.00
333.54	942.00
333.81	958.00
334.07	965.00
334.34	948.00
334.60	963.00
334.86	997.00
335.13	1008.00
335.39	948.00
335.66	941.00
335.92	959.00
336.19	990.00
336.45	909.00
336.72	935.00
336.98	928.00
337.24	950.00
337.51	915.00
337.77	938.00
338.04	949.00
338.30	959.00
338.57	905.00
338.83	926.00
339.10	951.00
339.36	970.00
339.63	943.00
339.89	908.00
340.15	937.00
340.42	966.00
340.68	958.00
340.95	966.00
341.21	957.00
341.48	958.00
341.74	906.00
342.00	898.00
342.27	955.00
342.53	958.00
342.80	918.00
343.06	940.00
343.33	966.00
343.59	968.00
343.85	927.00
344.12	941.00
344.38	1025.00
344.65	990.00
344.91	936.00
345.18	925.00
345.44	940.00
345.70	937.00
345.97	900.00
346.23	931.00
346.50	964.00
346.76	941.00
347.03	949.00
347.29	937.00
347.55	945.00
347.82	949.00
348.08	908.00
348.35	924.00
348.61	1004.00
348.87	975.00
349.14	917.00
349.40	911.00
349.67	968.00
349.93	951.00
350.20	936.00
350.46	948.00
350.72	972.00
350.99	940.00
351.25	932.00
351.52	943.00
351.78	949.00
352.04	951.00
352.31	938.00
352.57	939.00
352.84	938.00
353.10	956.00
353.36	942.00
353.63	941.00
353.89	936.00
354.16	943.00
354.42	944.00
354.68	946.00
354.95	986.00
355.21	985.00
355.48	919.00
355.74	950.00
356.00	1000.00
356.27	991.00
356.53	909.00
356.80	925.00
357.06	966.00
357.32	978.00
357.59	950.00
357.85	936.00
358.11	984.00
358.38	961.00
358.64	923.00
358.91	929.00
359.17	943.00
359.43	974.00
359.70	968.00
359.96	962.00
360.22	1000.00
360.49	957.00
360.75	941.00
361.02	904.00
361.28	916.00
361.54	955.00
361.81	922.00
362.07	936.00
362.33	931.00
362.60	941.00
362.86	926.00
363.13	965.00
363.39	986.00
363.65	978.00
363.92	901.00
364.18	910.00
364.44	941.00
364.71	968.00
364.97	958.00
365.24	947.00
365.50	973.00
365.76	980.00
366.03	951.00
366.29	942.00
366.55	970.00
366.82	948.00
367.08	908.00
367.34	932.00
367.61	966.00
367.87	969.00
368.13	922.00
368.40	925.00
368.66	974.00
368.93	971.00
369.19	906.00
369.45	919.00
369.72	965.00
369.98	954.00
370.24	908.00
370.51	920.00
370.77	961.00
371.03	947.00
371.30	926.00
371.56	950.00
371.82	975.00
372.09	964.00
372.35	949.00
372.61	949.00
372.88	952.00
373.14	984.00
373.40	937.00
373.67	930.00
373.93	966.00
374.19	971.00
374.46	933.00
374.72	921.00
374.98	947.00
375.25	968.00
375.51	932.00
375.77	948.00
376.04	974.00
376.30	993.00
376.56	923.00
376.83	912.00
377.09	970.00
377.35	966.00
377.62	938.00
377.88	932.00
378.14	939.00
378.41	981.00
378.67	942.00
378.93	947.00
379.20	975.00
379.46	953.00
379.72	920.00
379.99	935.00
380.25	939.00
380.51	933.00
380.77	916.00
381.04	940.00
381.30	965.00
381.56	995.00
381.83	941.00
382.09	940.00
382.35	948.00
382.62	972.00
382.88	947.00
383.14	941.00
383.41	939.00
383.67	944.00
383.93	956.00
384.20	942.00
384.46	954.00
384.72	973.00
384.98	892.00
385.25	926.00
385.51	972.00
385.77	962.00
386.04	921.00
386.30	919.00
386.56	984.00
386.82	1015.00
387.09	947.00
387.35	968.00
387.61	1031.00
387.88	974.00
388.14	947.00
388.40	944.00
388.67	958.00
388.93	940.00
389.19	933.00
389.45	931.00
389.72	943.00
389.98	969.00
390.24	934.00
390.51	919.00
390.77	975.00
391.03	971.00
391.29	926.00
391.56	936.00
391.82	968.00
392.08	1001.00
392.35	930.00
392.61	931.00
392.87	967.00
393.13	975.00
393.40	910.00
393.66	936.00
393.92	951.00
394.18	967.00
394.45	921.00
394.71	927.00
394.97	951.00
395.24	944.00
395.50	914.00
395.76	938.00
396.02	963.00
396.29	953.00
396.55	903.00
396.81	885.00
397.07	954.00
397.34	937.00
397.60	915.00
397.86	930.00
398.12	938.00
398.39	988.00
398.65	938.00
398.91	939.00
399.17	948.00
399.44	903.00
399.70	869.00
399.96	909.00
400.22	937.00
400.49	987.00
400.75	942.00
401.01	926.00
401.27	932.00
401.54	971.00
401.80	921.00
402.06	910.00
402.32	973.00
402.59	953.00
402.85	928.00
403.11	932.00
403.37	945.00
403.64	988.00
403.90	937.00
404.16	955.00
404.42	956.00
404.69	919.00
404.95	920.00
405.21	891.00
405.47	931.00
405.74	979.00
406.00	925.00
406.26	917.00
406.52	952.00
406.79	964.00
407.05	925.00
407.31	954.00
407.57	945.00
407.83	948.00
408.10	908.00
408.36	914.00
408.62	946.00
408.88	940.00
409.15	926.00
409.41	889.00
409.67	909.00
409.93	965.00
410.20	936.00
410.46	928.00
410.72	934.00
410.98	934.00
411.24	935.00
411.51	938.00
411.77	931.00
412.03	965.00
412.29	960.00
412.55	962.00
412.82	944.00
413.08	966.00
413.34	936.00
413.60	937.00
413.87	961.00
414.13	985.00
414.39	917.00
414.65	934.00
414.91	960.00
415.18	932.00
415.44	903.00
415.70	910.00
415.96	937.00
416.22	959.00
416.49	934.00
416.75	931.00
417.01	947.00
417.27	944.00
417.53	933.00
417.80	956.00
418.06	970.00
418.32	956.00
418.58	923.00
418.84	921.00
419.11	943.00
419.37	957.00
419.63	925.00
419.89	923.00
420.15	929.00
420.42	952.00
420.68	920.00
420.94	938.00
421.20	942.00
421.46	952.00
421.72	942.00
421.99	938.00
422.25	962.00
422.51	966.00
422.77	930.00
423.03	937.00
423.30	951.00
423.56	952.00
423.82	961.00
424.08	955.00
424.34	946.00
424.60	950.00
424.87	932.00
425.13	907.00
425.39	934.00
425.65	948.00
425.91	908.00
426.18	930.00
426.44	961.00
426.70	936.00
426.96	889.00
427.22	891.00
427.48	910.00
427.75	929.00
428.01	897.00
428.27	928.00
428.53	973.00
428.79	946.00
429.05	916.00
429.32	915.00
429.58	974.00
429.84	929.00
430.10	931.00
430.36	936.00
430.62	974.00
430.88	982.00
431.15	952.00
431.41	953.00
431.67	948.00
431.93	941.00
432.19	889.00
432.45	927.00
432.72	944.00
432.98	955.00
433.24	952.00
433.50	1037.00
433.76	946.00
434.02	930.00
434.28	909.00
434.55	920.00
434.81	958.00
435.07	964.00
435.33	900.00
435.59	909.00
435.85	928.00
436.11	957.00
436.38	909.00
436.64	925.00
436.90	951.00
437.16	944.00
437.42	928.00
437.68	940.00
437.94	963.00
438.21	966.00
438.47	964.00
438.73	942.00
438.99	945.00
439.25	954.00
439.51	924.00
439.77	940.00
440.03	944.00
440.30	958.00
440.56	925.00
440.82	942.00
441.08	980.00
441.34	956.00
441.60	910.00
441.86	946.00
442.12	963.00
442.39	946.00
442.65	915.00
442.91	931.00
443.17	934.00
443.43	950.00
443.69	938.00
443.95	912.00
444.21	921.00
444.47	957.00
444.74	911.00
445.00	915.00
445.26	917.00
445.52	935.00
445.78	907.00
446.04	908.00
446.30	966.00
446.56	948.00
446.82	914.00
447.09	918.00
447.35	955.00
447.61	958.00
447.87	925.00
448.13	929.00
448.39	1003.00
448.65	985.00
448.91	907.00
449.17	918.00
449.43	936.00
449.70	943.00
449.96	903.00
450.22	916.00
450.48	957.00
450.74	995.00
451.00	931.00
451.26	915.00
451.52	957.00
451.78	938.00
452.04	911.00
452.31	969.00
452.57	978.00
452.83	936.00
453.09	927.00
453.35	923.00
453.61	943.00
453.87	954.00
454.13	945.00
454.39	940.00
454.65	1002.00
454.91	985.00
455.17	918.00
455.44	949.00
455.70	971.00
455.96	957.00
456.22	906.00
456.48	923.00
456.74	946.00
457.00	913.00
457.26	873.00
457.52	920.00
457.78	935.00
458.04	938.00
458.30	900.00
458.56	930.00
458.82	931.00
459.09	911.00
459.35	867.00
459.61	882.00
459.87	946.00
460.13	961.00
460.39	924.00
460.65	905.00
460.91	959.00
461.17	928.00
461.43	891.00
461.69	897.00
461.95	934.00
462.21	913.00
462.47	922.00
462.73	968.00
462.99	961.00
463.26	948.00
463.52	889.00
463.78	885.00
464.04	906.00
464.30	947.00
464.56	898.00
464.82	929.00
465.08	974.00
465.34	988.00
465.60	937.00
465.86	946.00
466.12	955.00
466.38	920.00
466.64	891.00
466.90	924.00
467.16	940.00
467.42	956.00
467.68	920.00
467.94	934.00
468.20	965.00
468.46	955.00
468.72	925.00
468.98	932.00
469.25	955.00
469.51	915.00
469.77	947.00
470.03	942.00
470.29	946.00
470.55	950.00
470.81	934.00
471.07	941.00
471.33	959.00
471.59	958.00
471.85	915.00
472.11	945.00
472.37	962.00
472.63	943.00
472.89	936.00
473.15	924.00
473.41	945.00
473.67	927.00
473.93	896.00
474.19	911.00
474.45	922.00
474.71	944.00
474.97	909.00
475.23	909.00
475.49	934.00
475.75	944.00
476.01	919.00
476.27	934.00
476.53	978.00
476.79	959.00
477.05	940.00
477.31	934.00
477.57	954.00
477.83	938.00
478.09	878.00
478.35	918.00
478.61	977.00
478.87	951.00
479.13	914.00
479.39	948.00
479.65	942.00
479.91	970.00
480.17	936.00
480.43	964.00
480.69	951.00
480.95	949.00
481.21	913.00
481.47	930.00
481.73	935.00
481.99	908.00
482.25	897.00
482.51	895.00
482.77	941.00
483.03	945.00
483.29	925.00
483.55	925.00
483.81	967.00
484.07	967.00
484.33	919.00
484.59	932.00
484.85	968.00
485.11	961.00
485.37	928.00
485.63	934.00
485.89	940.00
486.15	927.00
486.41	913.00
486.67	914.00
486.93	938.00
487.19	933.00
487.45	911.00
487.71	915.00
487.97	973.00
488.23	983.00
488.49	912.00
488.75	896.00
489.01	965.00
489.27	972.00
489.53	911.00
489.79	905.00
490.05	920.00
490.31	955.00
490.57	936.00
490.83	980.00
491.08	945.00
491.34	919.00
491.60	919.00
491.86	941.00
492.12	985.00
492.38	991.00
492.64	923.00
492.90	910.00
493.16	959.00
493.42	925.00
493.68	902.00
493.94	936.00
494.20	923.00
494.46	949.00
494.72	925.00
494.98	922.00
495.24	913.00
495.50	930.00
495.76	929.00
496.02	941.00
496.28	960.00
496.54	972.00
496.80	938.00
497.05	904.00
497.31	934.00
497.57	948.00
497.83	909.00
498.09	930.00
498.35	963.00
498.61	940.00
498.87	920.00
499.13	934.00
499.39	943.00
499.65	918.00
499.91	924.00
500.17	901.00
500.43	1002.00
500.69	1017.00
500.95	920.00
501.20	947.00
501.46	958.00
501.72	938.00
501.98	951.00
502.24	944.00
502.50	977.00
502.76	935.00
503.02	916.00
503.28	941.00
503.54	1019.00
503.80	987.00
504.06	953.00
504.32	948.00
504.58	956.00
504.83	961.00
505.09	899.00
505.35	934.00
505.61	928.00
505.87	932.00
506.13	927.00
506.39	922.00
506.65	948.00
506.91	995.00
507.17	927.00
507.43	924.00
507.68	944.00
507.94	980.00
508.20	903.00
508.46	901.00
508.72	960.00
508.98	977.00
509.24	909.00
509.50	949.00
509.76	927.00
510.02	934.00
510.28	894.00
510.53	921.00
510.79	950.00
511.05	956.00
511.31	914.00
511.57	932.00
511.83	945.00
512.09	970.00
512.35	932.00
512.61	940.00
512.87	943.00
513.12	945.00
513.38	899.00
513.64	910.00
513.90	963.00
514.16	983.00
514.42	923.00
514.68	925.00
514.94	956.00
515.20	964.00
515.45	917.00
515.71	927.00
515.97	927.00
516.23	943.00
516.49	919.00
516.75	920.00
517.01	950.00
517.27	935.00
517.53	907.00
517.78	915.00
518.04	929.00
518.30	923.00
518.56	904.00
518.82	938.00
519.08	977.00
519.34	925.00
519.60	922.00
519.85	937.00
520.11	938.00
520.37	935.00
520.63	915.00
520.89	947.00
521.15	930.00
521.41	916.00
521.66	923.00
521.92	928.00
522.18	968.00
522.44	972.00
522.70	922.00
522.96	886.00
523.22	952.00
523.48	942.00
523.73	906.00
523.99	916.00
524.25	975.00
524.51	971.00
524.77	913.00
525.03	909.00
525.29	942.00
525.54	957.00
525.80	925.00
526.06	932.00
526.32	926.00
526.58	918.00
526.84	910.00
527.09	922.00
527.35	920.00
527.61	923.00
527.87	915.00
528.13	941.00
528.39	936.00
528.65	941.00
528.90	900.00
529.16	886.00
529.42	922.00
529.68	929.00
529.94	912.00
530.20	937.00
530.45	920.00
530.71	948.00
530.97	909.00
531.23	920.00
531.49	959.00
531.75	953.00
532.00	920.00
532.26	917.00
532.52	960.00
532.78	938.00
533.04	912.00
533.30	917.00
533.55	949.00
533.81	941.00
534.07	897.00
534.33	921.00
534.59	968.00
534.85	958.00
535.10	917.00
535.36	903.00
535.62	926.00
535.88	939.00
536.14	891.00
536.39	903.00
536.65	957.00
536.91	970.00
537.17	906.00
537.43	924.00
537.69	978.00
537.94	949.00
538.20	901.00
538.46	927.00
538.72	930.00
538.98	945.00
539.23	901.00
539.49	901.00
539.75	961.00
540.01	955.00
540.27	911.00
540.52	956.00
540.78	950.00
541.04	967.00
541.30	907.00
541.56	899.00
541.81	976.00
542.07	1020.00
542.33	910.00
542.59	924.00
542.85	933.00
543.10	951.00
543.36	914.00
543.62	937.00
543.88	938.00
544.14	935.00
544.39	912.00
544.65	914.00
544.91	972.00
545.17	954.00
545.43	919.00
545.68	931.00
545.94	951.00
546.20	958.00
546.46	926.00
546.71	926.00
546.97	951.00
547.23	963.00
547.49	914.00
547.75	911.00
548.00	939.00
548.26	952.00
548.52	892.00
548.78	908.00
549.03	928.00
549.29	937.00
549.55	906.00
549.81	927.00
550.07	949.00
550.32	938.00
550.58	894.00
550.84	940.00
551.10	937.00
551.35	936.00
551.61	905.00
551.87	935.00
552.13	953.00
552.39	925.00
552.64	890.00
552.90	919.00
553.16	937.00
553.42	940.00
553.67	902.00
553.93	906.00
554.19	946.00
554.45	988.00
554.70	927.00
554.96	898.00
555.22	938.00
555.48	953.00
555.73	915.00
555.99	925.00
556.25	974.00
556.51	936.00
556.76	910.00
557.02	931.00
557.28	980.00
557.54	936.00
557.79	910.00
558.05	949.00
558.31	923.00
558.57	952.00
558.82	920.00
559.08	895.00
559.34	908.00
559.60	950.00
559.85	926.00
560.11	923.00
560.37	932.00
560.63	925.00
560.88	904.00
561.14	908.00
561.40	937.00
561.66	915.00
561.91	905.00
562.17	921.00
562.43	940.00
562.68	965.00
562.94	951.00
563.20	952.00
563.46	954.00
563.71	958.00
563.97	926.00
564.23	932.00
564.49	954.00
564.74	942.00
565.00	908.00
565.26	918.00
565.51	934.00
565.77	932.00
566.03	903.00
566.29	922.00
566.54	915.00
566.80	935.00
567.06	902.00
567.31	949.00
567.57	965.00
567.83	933.00
568.09	924.00
568.34	904.00
568.60	908.00
568.86	956.00
569.11	953.00
569.37	921.00
569.63	943.00
569.89	952.00
570.14	894.00
570.40	913.00
570.66	918.00
570.91	910.00
571.17	912.00
571.43	949.00
571.69	966.00
571.94	979.00
572.20	909.00
572.46	917.00
572.71	965.00
572.97	948.00
573.23	891.00
573.48	913.00
573.74	937.00
574.00	952.00
574.26	921.00
574.51	916.00
574.77	961.00
575.03	944.00
575.28	910.00
575.54	899.00
575.80	922.00
576.05	947.00
576.31	892.00
576.57	892.00
576.82	938.00
577.08	947.00
577.34	911.00
577.59	920.00
577.85	955.00
578.11	929.00
578.37	909.00
578.62	906.00
578.88	962.00
579.14	956.00
579.39	929.00
579.65	921.00
579.91	913.00
580.16	946.00
580.42	941.00
580.68	931.00
580.93	945.00
581.19	944.00
581.45	907.00
581.70	925.00
581.96	946.00
582.22	948.00
582.47	945.00
582.73	929.00
582.99	948.00
583.24	941.00
583.50	897.00
583.76	918.00
584.01	944.00
584.27	971.00
584.53	927.00
584.78	925.00
585.04	919.00
585.30	949.00
585.55	924.00
585.81	905.00
586.07	970.00
586.32	965.00
586.58	921.00
586.83	930.00
587.09	962.00
587.35	948.00
587.60	913.00
587.86	924.00
588.12	939.00
588.37	958.00
588.63	921.00
588.89	943.00
589.14	955.00
589.40	959.00
589.66	927.00
589.91	927.00
590.17	942.00
590.43	903.00
590.68	892.00
590.94	927.00
591.19	945.00
591.45	932.00
591.71	913.00
591.96	926.00
592.22	945.00
592.48	969.00
592.73	900.00
592.99	910.00
593.25	952.00
593.50	976.00
593.76	910.00
594.01	929.00
594.27	964.00
594.53	942.00
594.78	905.00
595.04	921.00
595.30	948.00
595.55	946.00
595.81	896.00
596.06	932.00
596.32	973.00
596.58	985.00
596.83	923.00
597.09	963.00
597.35	960.00
597.60	929.00
597.86	905.00
598.11	938.00
598.37	958.00
598.63	963.00
598.88	921.00
599.14	916.00
599.39	990.00
599.65	951.00
599.91	901.00
600.16	924.00
600.42	957.00
600.67	974.00
600.93	924.00
601.19	938.00
601.44	1017.00
601.70	970.00
601.95	922.00
602.21	947.00
602.47	970.00
602.72	964.00
602.98	922.00
603.23	938.00
603.49	961.00
603.75	974.00
604.00	942.00
604.26	950.00
604.51	958.00
604.77	995.00
605.03	956.00
605.28	947.00
605.54	988.00
605.79	996.00
606.05	917.00
606.31	921.00
606.56	957.00
606.82	980.00
607.07	948.00
607.33	956.00
607.59	985.00
607.84	962.00
608.10	935.00
608.35	957.00
608.61	988.00
608.86	990.00
609.12	960.00
609.38	1004.00
609.63	1019.00
609.89	1000.00
610.14	944.00
610.40	977.00
610.65	1012.00
610.91	1004.00
611.17	964.00
611.42	989.00
611.68	1027.00
611.93	1047.00
612.19	1008.00
612.44	1028.00
612.70	1026.00
612.96	982.00
613.21	964.00
613.47	976.00
613.72	1016.00
613.98	1038.00
614.23	1001.00
614.49	1024.00
614.75	1054.00
615.00	1025.00
615.26	1002.00
615.51	972.00
615.77	1015.00
616.02	1051.00
616.28	1037.00
616.53	1038.00
616.79	1046.00
617.05	1046.00
617.30	1031.00
617.56	1055.00
617.81	1095.00
618.07	1084.00
618.32	1059.00
618.58	1117.00
618.83	1110.00
619.09	1117.00
619.34	1075.00
619.60	1085.00
619.86	1120.00
620.11	1140.00
620.37	1102.00
620.62	1110.00
620.88	1136.00
621.13	1168.00
621.39	1147.00
621.64	1144.00
621.90	1201.00
622.15	1222.00
622.41	1161.00
622.66	1180.00
622.92	1210.00
623.18	1250.00
623.43	1198.00
623.69	1224.00
623.94	1284.00
624.20	1282.00
624.45	1253.00
624.71	1269.00
624.96	1300.00
625.22	1372.00
625.47	1342.00
625.73	1388.00
625.98	1404.00
626.24	1343.00
626.49	1292.00
626.75	1338.00
627.00	1408.00
627.26	1417.00
627.51	1412.00
627.77	1410.00
628.02	1449.00
628.28	1528.00
628.53	1511.00
628.79	1558.00
629.05	1577.00
629.30	1641.00
629.56	1705.00
629.81	1758.00
630.07	1837.00
630.32	1854.00
630.58	1737.00
630.83	1741.00
631.09	1734.00
631.34	1719.00
631.60	1808.00
631.85	1898.00
632.11	2002.00
632.36	2058.00
632.62	2023.00
632.87	2145.00
633.13	2301.00
633.38	2200.00
633.64	2057.00
633.89	2171.00
634.15	2474.00
634.40	2586.00
634.66	2340.00
634.91	2300.00
635.17	2466.00
635.42	2613.00
635.68	2753.00
635.93	2783.00
636.18	2878.00
636.44	2937.00
636.69	2823.00
636.95	2666.00
637.20	2771.00
637.46	2887.00
637.71	3022.00
637.97	3081.00
638.22	2973.00
638.48	2769.00
638.73	2797.00
638.99	2898.00
639.24	2988.00
639.50	3011.00
639.75	3017.00
640.01	2969.00
640.26	2890.00
640.52	2901.00
640.77	2951.00
641.03	3071.00
641.28	3097.00
641.54	2968.00
641.79	2746.00
642.04	2740.00
642.30	2673.00
642.55	2522.00
642.81	2483.00
643.06	2496.00
643.32	2431.00
643.57	2306.00
643.83	2134.00
644.08	2207.00
644.34	2327.00
644.59	2417.00
644.85	2346.00
645.10	2254.00
645.35	2140.00
645.61	2070.00
645.86	1989.00
646.12	1908.00
646.37	1854.00
646.63	1792.00
646.88	1707.00
647.14	1686.00
647.39	1623.00
647.65	1668.00
647.90	1655.00
648.15	1803.00
648.41	1769.00
648.66	1617.00
648.92	1523.00
649.17	1570.00
649.43	1593.00
649.68	1497.00
649.94	1400.00
650.19	1343.00
650.44	1335.00
650.70	1318.00
650.95	1259.00
651.21	1255.00
651.46	1282.00
651.72	1236.00
651.97	1198.00
652.23	1180.00
652.48	1205.00
652.73	1196.00
652.99	1143.00
653.24	1151.00
653.50	1155.00
653.75	1134.00
654.01	1121.00
654.26	1105.00
654.51	1084.00
654.77	1110.00
655.02	1094.00
655.28	1052.00
655.53	1068.00
655.79	1078.00
656.04	1051.00
656.29	1051.00
656.55	1054.00
656.80	1078.00
657.06	1032.00
657.31	1004.00
657.56	1007.00
657.82	1014.00
658.07	998.00
658.33	1015.00
658.58	1009.00
658.84	1049.00
659.09	996.00
659.34	1001.00
659.60	1016.00
659.85	1011.00
660.11	977.00
660.36	982.00
660.61	976.00
660.87	956.00
661.12	939.00
661.38	967.00
661.63	993.00
661.88	994.00
662.14	989.00
662.39	957.00
662.65	1005.00
662.90	1015.00
663.15	935.00
663.41	965.00
663.66	1018.00
663.92	1012.00
664.17	928.00
664.42	944.00
664.68	973.00
664.93	961.00
665.19	922.00
665.44	946.00
665.69	937.00
665.95	958.00
666.20	918.00
666.45	951.00
666.71	970.00
666.96	972.00
667.22	906.00
667.47	928.00
667.72	936.00
667.98	951.00
668.23	917.00
668.49	953.00
668.74	940.00
668.99	957.00
669.25	932.00
669.50	941.00
669.75	958.00
670.01	969.00
670.26	917.00
670.52	926.00
670.77	970.00
671.02	945.00
671.28	902.00
671.53	937.00
671.78	957.00
672.04	959.00
672.29	927.00
672.54	924.00
672.80	943.00
673.05	964.00
673.31	909.00
673.56	967.00
673.81	990.00
674.07	968.00
674.32	929.00
674.57	933.00
674.83	933.00
675.08	965.00
675.33	925.00
675.59	935.00
675.84	967.00
676.09	930.00
676.35	909.00
676.60	948.00
676.86	958.00
677.11	963.00
677.36	926.00
677.62	948.00
677.87	987.00
678.12	977.00
678.38	894.00
678.63	918.00
678.88	969.00
679.14	981.00
679.39	908.00
679.64	938.00
679.90	916.00
680.15	950.00
680.40	953.00
680.66	920.00
680.91	953.00
681.16	947.00
681.42	925.00
681.67	912.00
681.92	951.00
682.18	966.00
682.43	894.00
682.68	888.00
682.94	915.00
683.19	928.00
683.44	911.00
683.70	938.00
683.95	938.00
684.20	922.00
684.46	934.00
684.71	953.00
684.96	930.00
685.22	920.00
685.47	908.00
685.72	938.00
685.98	960.00
686.23	909.00
686.48	901.00
686.74	955.00
686.99	964.00
687.24	940.00
687.50	897.00
687.75	920.00
688.00	918.00
688.25	933.00
688.51	933.00
688.76	945.00
689.01	917.00
689.27	921.00
689.52	890.00
689.77	924.00
690.03	917.00
690.28	922.00
690.53	917.00
690.79	941.00
691.04	936.00
691.29	931.00
691.54	881.00
691.80	935.00
692.05	936.00
692.30	949.00
692.56	917.00
692.81	946.00
693.06	933.00
693.32	911.00
693.57	892.00
693.82	933.00
694.07	937.00
694.33	932.00
694.58	908.00
694.83	933.00
695.09	918.00
695.34	949.00
695.59	918.00
695.84	923.00
696.10	960.00
696.35	947.00
696.60	883.00
696.86	903.00
697.11	950.00
697.36	959.00
697.61	918.00
697.87	926.00
698.12	927.00
698.37	953.00
698.63	929.00
698.88	908.00
699.13	941.00
699.38	934.00
699.64	898.00
699.89	910.00
700.14	921.00
700.39	925.00
700.65	914.00
700.90	936.00
701.15	941.00
701.40	963.00
701.66	897.00
701.91	921.00
702.16	906.00
702.42	908.00
702.67	878.00
702.92	906.00
703.17	916.00
703.43	946.00
703.68	924.00
703.93	945.00
704.18	974.00
704.44	944.00
704.69	923.00
704.94	937.00
705.19	929.00
705.45	943.00
705.70	915.00
705.95	920.00
706.20	920.00
706.46	944.00
706.71	906.00
706.96	900.00
707.21	926.00
707.47	929.00
707.72	921.00
707.97	932.00
708.22	954.00
708.48	969.00
708.73	906.00
708.98	893.00
709.23	937.00
709.49	922.00
709.74	923.00
709.99	918.00
710.24	928.00
710.50	936.00
710.75	936.00
711.00	951.00
711.25	951.00
711.50	930.00
711.76	899.00
712.01	923.00
712.26	912.00
712.51	924.00
712.77	897.00
713.02	920.00
713.27	932.00
713.52	933.00
713.78	916.00
714.03	926.00
714.28	917.00
714.53	938.00
714.78	914.00
715.04	945.00
715.29	950.00
715.54	947.00
715.79	900.00
716.05	934.00
716.30	950.00
716.55	958.00
716.80	920.00
717.05	939.00
717.31	943.00
717.56	939.00
717.81	916.00
718.06	907.00
718.31	906.00
718.57	939.00
718.82	910.00
719.07	958.00
719.32	930.00
719.57	941.00
719.83	917.00
720.08	937.00
720.33	928.00
720.58	916.00
720.83	888.00
721.09	953.00
721.34	923.00
721.59	944.00
721.84	897.00
722.09	918.00
722.35	947.00
722.60	926.00
722.85	922.00
723.10	939.00
723.35	922.00
723.61	938.00
723.86	931.00
724.11	924.00
724.36	920.00
724.61	928.00
724.87	925.00
725.12	911.00
725.37	913.00
725.62	896.00
725.87	895.00
726.12	905.00
726.38	909.00
726.63	930.00
726.88	914.00
727.13	943.00
727.38	935.00
727.64	941.00
727.89	901.00
728.14	887.00
728.39	895.00
728.64	925.00
728.89	918.00
729.15	938.00
729.40	945.00
729.65	957.00
729.90	904.00
730.15	932.00
730.40	955.00
730.66	940.00
730.91	899.00
731.16	928.00
731.41	932.00
731.66	941.00
731.91	904.00
732.17	945.00
732.42	957.00
732.67	943.00
732.92	906.00
733.17	934.00
733.42	929.00
733.68	932.00
733.93	874.00
734.18	906.00
734.43	916.00
734.68	926.00
734.93	907.00
735.18	936.00
735.44	944.00
735.69	931.00
735.94	877.00
736.19	906.00
736.44	913.00
736.69	976.00
736.95	910.00
737.20	933.00
737.45	954.00
737.70	934.00
737.95	929.00
738.20	925.00
738.45	949.00
738.70	928.00
738.96	919.00
739.21	934.00
739.46	942.00
739.71	952.00
739.96	910.00
740.21	944.00
740.46	1000.00
740.72	957.00
740.97	912.00
741.22	947.00
741.47	913.00
741.72	944.00
741.97	908.00
742.22	913.00
742.47	932.00
742.73	932.00
742.98	902.00
743.23	913.00
743.48	902.00
743.73	937.00
743.98	920.00
744.23	930.00
744.48	933.00
744.74	925.00
744.99	903.00
745.24	925.00
745.49	932.00
745.74	948.00
745.99	897.00
746.24	918.00
746.49	913.00
746.74	919.00
747.00	917.00
747.25	937.00
747.50	913.00
747.75	916.00
748.00	886.00
748.25	909.00
748.50	906.00
748.75	933.00
749.00	951.00
749.26	971.00
749.51	936.00
749.76	927.00
750.01	901.00
750.26	921.00
750.51	959.00
750.76	928.00
751.01	891.00
751.26	912.00
751.51	928.00
751.77	955.00
752.02	910.00
752.27	912.00
752.52	924.00
752.77	937.00
753.02	912.00
753.27	930.00
753.52	923.00
753.77	923.00
754.02	914.00
754.27	927.00
754.52	915.00
754.78	940.00
755.03	913.00
755.28	932.00
755.53	932.00
755.78	942.00
756.03	901.00
756.28	919.00
756.53	923.00
756.78	920.00
757.03	905.00
757.28	932.00
757.53	951.00
757.79	917.00
758.04	889.00
758.29	968.00
758.54	951.00
758.79	948.00
759.04	894.00
759.29	900.00
759.54	910.00
759.79	919.00
760.04	910.00
760.29	912.00
760.54	904.00
760.79	924.00
761.04	891.00
761.29	910.00
761.55	891.00
761.80	899.00
762.05	881.00
762.30	924.00
762.55	924.00
762.80	959.00
763.05	933.00
763.30	937.00
763.55	964.00
763.80	963.00
764.05	895.00
764.30	923.00
764.55	951.00
764.80	914.00
765.05	876.00
765.30	929.00
765.55	938.00
765.80	931.00
766.05	883.00
766.30	929.00
766.56	936.00
766.81	948.00
767.06	931.00
767.31	912.00
767.56	904.00
767.81	922.00
768.06	919.00
768.31	929.00
768.56	943.00
768.81	985.00
769.06	906.00
769.31	924.00
769.56	915.00
769.81	943.00
770.06	905.00
770.31	919.00
770.56	937.00
770.81	909.00
771.06	899.00
771.31	911.00
771.56	917.00
771.81	951.00
772.06	885.00
772.31	946.00
772.56	929.00
772.81	947.00
773.06	913.00
773.31	952.00
773.56	924.00
773.81	904.00
774.06	888.00
774.31	914.00
774.56	930.00
774.81	955.00
775.06	924.00
775.31	933.00
775.56	918.00
775.81	913.00
776.06	890.00
776.31	921.00
776.56	923.00
776.82	940.00
777.07	905.00
777.32	918.00
777.57	926.00
777.82	955.00
778.07	898.00
778.32	905.00
778.57	921.00
778.82	951.00
779.07	913.00
779.32	927.00
779.57	897.00
779.82	922.00
780.07	911.00
780.32	938.00
780.56	920.00
780.81	959.00
781.06	891.00
781.31	925.00
781.56	944.00
781.81	937.00
782.06	900.00
782.31	938.00
782.56	934.00
782.81	964.00
783.06	903.00
783.31	912.00
783.56	909.00
783.81	945.00
784.06	926.00
784.31	915.00
784.56	902.00
784.81	949.00
785.06	918.00
785.31	940.00
785.56	910.00
785.81	904.00
786.06	877.00
786.31	907.00
786.56	903.00
786.81	910.00
787.06	919.00
787.31	926.00
787.56	908.00
787.81	905.00
788.06	897.00
788.31	934.00
788.56	917.00
788.81	953.00
789.06	915.00
789.31	910.00
789.56	918.00
789.81	925.00
790.06	898.00
790.31	933.00
790.56	917.00
790.80	927.00
791.05	887.00
791.30	889.00
791.55	894.00
791.80	927.00
792.05	903.00
792.30	904.00
792.55	900.00
792.80	924.00
793.05	895.00
793.30	908.00
793.55	923.00
793.80	938.00
794.05	889.00
794.30	928.00
794.55	934.00
794.80	952.00
795.05	884.00
795.30	893.00
795.54	901.00
795.79	934.00
796.04	900.00
796.29	922.00
796.54	895.00
796.79	939.00
797.04	916.00
797.29	934.00
797.54	953.00
797.79	946.00
798.04	903.00
798.29	909.00
798.54	918.00
798.79	919.00
799.04	887.00
799.29	909.00
799.53	912.00
799.78	922.00
800.03	905.00
800.28	906.00
800.53	913.00
800.78	941.00
801.03	917.00
801.28	933.00
801.53	912.00
801.78	932.00
802.03	914.00
802.28	925.00
802.52	949.00
802.77	953.00
803.02	924.00
803.27	936.00
803.52	898.00
803.77	936.00
804.02	937.00
804.27	938.00
804.52	928.00
804.77	955.00
805.02	910.00
805.27	933.00
805.51	928.00
805.76	954.00
806.01	894.00
806.26	900.00
806.51	908.00
806.76	933.00
807.01	913.00
807.26	894.00
807.51	927.00
807.76	906.00
808.00	885.00
808.25	925.00
808.50	939.00
808.75	915.00
809.00	898.00
809.25	912.00
809.50	923.00
809.75	956.00
810.00	936.00
810.24	909.00
810.49	880.00
810.74	899.00
810.99	919.00
811.24	940.00
811.49	941.00
811.74	940.00
811.99	876.00
812.24	930.00
812.48	905.00
812.73	905.00
812.98	866.00
813.23	883.00
813.48	922.00
813.73	920.00
813.98	879.00
814.23	918.00
814.47	908.00
814.72	901.00
814.97	884.00
815.22	927.00
815.47	902.00
815.72	902.00
815.97	867.00
816.22	904.00
816.46	918.00
816.71	946.00
816.96	910.00
817.21	926.00
817.46	896.00
817.71	923.00
817.96	900.00
818.20	901.00
818.45	903.00
818.70	933.00
818.95	904.00
819.20	909.00
819.45	916.00
819.70	910.00
819.94	889.00
820.19	917.00
820.44	896.00
820.69	930.00
820.94	907.00
821.19	935.00
821.44	989.00
821.68	989.00
821.93	923.00
822.18	939.00
822.43	956.00
822.68	954.00
822.93	906.00
823.17	921.00
823.42	942.00
823.67	925.00
823.92	909.00
824.17	938.00
824.42	927.00
824.67	948.00
824.91	925.00
825.16	917.00
825.41	924.00
825.66	925.00
825.91	875.00
826.16	889.00
826.40	935.00
826.65	945.00
826.90	897.00
827.15	931.00
827.40	929.00
827.65	958.00
827.89	871.00
828.14	911.00
828.39	938.00
828.64	944.00
828.89	891.00
829.13	905.00
829.38	909.00
829.63	926.00
829.88	893.00
830.13	905.00
830.38	900.00
830.62	919.00
830.87	911.00
831.12	917.00
831.37	936.00
831.62	978.00
831.86	910.00
832.11	920.00
832.36	915.00
832.61	938.00
832.86	902.00
833.10	917.00
833.35	918.00
833.60	941.00
833.85	899.00
834.10	920.00
834.35	963.00
834.59	960.00
834.84	894.00
835.09	932.00
835.34	909.00
835.59	925.00
835.83	901.00
836.08	937.00
836.33	933.00
836.58	945.00
836.83	908.00
837.07	922.00
837.32	920.00
837.57	912.00
837.82	909.00
838.06	926.00
838.31	955.00
838.56	961.00
838.81	912.00
839.06	934.00
839.30	913.00
839.55	947.00
839.80	894.00
840.05	934.00
840.30	954.00
840.54	971.00
840.79	914.00
841.04	932.00
841.29	949.00
841.53	940.00
841.78	908.00
842.03	905.00
842.28	916.00
842.53	909.00
842.77	903.00
843.02	919.00
843.27	932.00
843.52	936.00
843.76	906.00
844.01	910.00
844.26	924.00
844.51	961.00
844.75	915.00
845.00	909.00
845.25	917.00
845.50	939.00
845.75	905.00
845.99	944.00
846.24	941.00
846.49	938.00
846.74	890.00
846.98	897.00
847.23	907.00
847.48	931.00
847.73	894.00
847.97	926.00
848.22	947.00
848.47	941.00
848.72	904.00
848.96	891.00
849.21	942.00
849.46	922.00
849.71	892.00
849.95	907.00
850.20	908.00
850.45	936.00
850.70	889.00
850.94	919.00
851.19	927.00
851.44	926.00
851.69	889.00
851.93	918.00
852.18	940.00
852.43	925.00
852.68	900.00
852.92	926.00
853.17	968.00
853.42	966.00
853.66	930.00
853.91	944.00
854.16	914.00
854.41	953.00
854.65	915.00
854.90	918.00
855.15	919.00
855.40	941.00
855.64	910.00
855.89	915.00
856.14	923.00
856.39	928.00
856.63	911.00
856.88	923.00
857.13	905.00
857.37	914.00
857.62	891.00
857.87	867.00
858.12	900.00
858.36	947.00
858.61	869.00
858.86	909.00
859.10	931.00
859.35	933.00
859.60	890.00
859.85	883.00
860.09	877.00
860.34	929.00
860.59	908.00
860.83	931.00
861.08	917.00
861.33	955.00
861.58	919.00
861.82	902.00
862.07	937.00
862.32	934.00
862.56	895.00
862.81	909.00
863.06	917.00
863.30	908.00
863.55	918.00
863.80	921.00
864.05	915.00
864.29	911.00
864.54	906.00
864.79	930.00
865.03	928.00
865.28	938.00
865.53	901.00
865.77	889.00
866.02	942.00
866.27	946.00
866.51	903.00
866.76	892.00
867.01	896.00
867.26	938.00
867.50	891.00
867.75	884.00
868.00	933.00
868.24	947.00
868.49	911.00
868.74	914.00
868.98	900.00
869.23	926.00
869.48	927.00
869.72	916.00
869.97	920.00
870.22	944.00
870.46	912.00
870.71	932.00
870.96	923.00
871.20	949.00
871.45	881.00
871.70	912.00
871.94	962.00
872.19	966.00
872.44	927.00
872.68	914.00
872.93	909.00
873.18	932.00
873.42	894.00
873.67	932.00
873.92	955.00
874.16	929.00
874.41	910.00
874.66	935.00
874.90	937.00
875.15	949.00
875.40	931.00
875.64	913.00
875.89	923.00
876.14	933.00
876.38	906.00
876.63	909.00
876.88	926.00
877.12	932.00
877.37	894.00
877.62	934.00
877.86	920.00
878.11	937.00
878.36	889.00
878.60	910.00
878.85	914.00
879.09	923.00
879.34	901.00
879.59	929.00
879.83	954.00
880.08	955.00
880.33	924.00
880.57	944.00
880.82	941.00
881.07	938.00
881.31	919.00
881.56	906.00
881.80	898.00
882.05	933.00
882.30	889.00
882.54	883.00
882.79	945.00
883.04	966.00
883.28	929.00
883.53	917.00
883.77	931.00
884.02	944.00
884.27	894.00
884.51	899.00
884.76	936.00
885.01	966.00
885.25	885.00
885.50	925.00
885.74	925.00
885.99	958.00
886.24	909.00
886.48	922.00
886.73	952.00
886.98	952.00
887.22	933.00
887.47	924.00
887.71	922.00
887.96	947.00
888.21	918.00
888.45	907.00
888.70	907.00
888.94	951.00
889.19	907.00
889.44	932.00
889.68	930.00
889.93	952.00
890.17	923.00
890.42	909.00
890.67	933.00
890.91	1010.00
891.16	912.00
891.40	909.00
891.65	924.00
891.90	966.00
892.14	880.00
892.39	914.00
892.63	944.00
892.88	959.00
893.13	928.00
893.37	900.00
893.62	910.00
893.86	958.00
894.11	916.00
894.36	916.00
894.60	918.00
894.85	922.00
895.09	898.00
895.34	930.00
895.59	936.00
895.83	932.00
896.08	877.00
896.32	897.00
896.57	915.00
896.81	922.00
897.06	892.00
897.31	915.00
897.55	933.00
897.80	910.00
898.04	883.00
898.29	896.00
898.53	921.00
898.78	939.00
899.03	900.00
899.27	905.00
899.52	928.00
899.76	944.00
900.01	905.00
900.25	927.00
900.50	943.00
900.75	944.00
900.99	921.00
901.24	993.00
901.48	927.00
901.73	941.00
901.97	902.00
902.22	918.00
902.47	929.00
902.71	933.00
902.96	889.00
903.20	909.00
903.45	946.00
903.69	945.00
903.94	924.00
904.18	896.00
904.43	922.00
904.68	940.00
904.92	885.00
905.17	905.00
905.41	933.00
905.66	942.00
905.90	953.00
906.15	933.00
906.39	933.00
906.64	917.00
906.88	893.00
907.13	914.00
907.38	944.00
907.62	960.00
907.87	901.00
908.11	933.00
908.36	907.00
908.60	932.00
908.85	876.00
909.09	903.00
909.34	920.00
909.58	940.00
909.83	899.00
910.07	912.00
910.32	963.00
910.56	967.00
910.81	892.00
911.06	946.00
911.30	954.00
911.55	941.00
911.79	881.00
912.04	902.00
912.28	895.00
912.53	947.00
912.77	908.00
913.02	910.00
913.26	920.00
913.51	933.00
913.75	918.00
914.00	926.00
914.24	929.00
914.49	922.00
914.73	908.00
914.98	928.00
915.22	955.00
915.47	921.00
915.71	901.00
915.96	948.00
916.20	920.00
916.45	912.00
916.69	902.00
916.94	911.00
917.18	918.00
917.43	921.00
917.67	898.00
917.92	890.00
918.16	936.00
918.41	937.00
918.65	900.00
918.90	909.00
919.14	882.00
919.39	924.00
919.63	894.00
919.88	902.00
920.12	938.00
920.37	936.00
920.61	892.00
920.86	924.00
921.10	952.00
921.35	925.00
921.59	896.00
921.84	924.00
922.08	937.00
922.33	950.00
922.57	909.00
922.82	896.00
923.06	924.00
923.31	927.00
923.55	867.00
923.80	904.00
924.04	909.00
924.29	941.00
924.53	901.00
924.78	920.00
925.02	901.00
925.27	931.00
925.51	915.00
925.76	942.00
926.00	924.00
926.25	927.00
926.49	888.00
926.73	923.00
926.98	928.00
927.22	953.00
927.47	920.00
927.71	915.00
927.96	937.00
928.20	937.00
928.45	925.00
928.69	968.00
928.94	937.00
929.18	926.00
929.43	930.00
929.67	925.00
929.91	940.00
930.16	941.00
930.40	892.00
930.65	889.00
930.89	936.00
931.14	972.00
931.38	934.00
931.63	926.00
931.87	927.00
932.12	952.00
932.36	883.00
932.60	897.00
932.85	940.00
933.09	932.00
933.34	889.00
933.58	924.00
933.83	909.00
934.07	927.00
934.32	894.00
934.56	930.00
934.80	967.00
935.05	978.00
935.29	918.00
935.54	929.00
935.78	948.00
936.03	946.00
936.27	887.00
936.52	909.00
936.76	904.00
937.00	929.00
937.25	903.00
937.49	933.00
937.74	954.00
937.98	964.00
938.23	890.00
938.47	902.00
938.71	905.00
938.96	918.00
939.20	885.00
939.45	897.00
939.69	909.00
939.94	947.00
940.18	893.00
940.42	899.00
940.67	927.00
940.91	925.00
941.16	905.00
941.40	898.00
941.64	919.00
941.89	946.00
942.13	893.00
942.38	940.00
942.62	1005.00
942.87	961.00
943.11	922.00
943.35	907.00
943.60	948.00
943.84	957.00
944.09	922.00
944.33	950.00
944.57	954.00
944.82	920.00
945.06	900.00
945.31	919.00
945.55	919.00
945.79	930.00
946.04	917.00
946.28	910.00
946.53	915.00
946.77	939.00
947.01	882.00
947.26	926.00
947.50	925.00
947.75	938.00
947.99	904.00
948.23	914.00
948.48	922.00
948.72	926.00
948.97	917.00
949.21	924.00
949.45	925.00
949.70	950.00
949.94	918.00
950.18	933.00
950.43	944.00
950.67	928.00
950.92	919.00
951.16	911.00
951.40	919.00
951.65	914.00
951.89	896.00
952.13	918.00
952.38	927.00
952.62	922.00
952.87	902.00
953.11	922.00
953.35	950.00
953.60	948.00
953.84	870.00
954.08	856.00
954.33	905.00
954.57	922.00
954.82	909.00
955.06	903.00
955.30	918.00
955.55	928.00
955.79	914.00
956.03	891.00
956.28	902.00
956.52	919.00
956.76	934.00
957.01	940.00
957.25	926.00
957.50	948.00
957.74	899.00
957.98	897.00
958.23	940.00
958.47	932.00
958.71	903.00
958.96	936.00
959.20	943.00
959.44	916.00
959.69	896.00
959.93	917.00
960.17	944.00
960.42	952.00
960.66	919.00
960.90	928.00
961.15	917.00
961.39	922.00
961.64	886.00
961.88	896.00
962.12	925.00
962.37	928.00
962.61	903.00
962.85	909.00
963.10	930.00
963.34	923.00
963.58	887.00
963.83	909.00
964.07	921.00
964.31	931.00
964.56	910.00
964.80	896.00
965.04	924.00
965.29	922.00
965.53	886.00
965.77	897.00
966.02	891.00
966.26	924.00
966.50	874.00
966.74	907.00
966.99	944.00
967.23	921.00
967.47	897.00
967.72	918.00
967.96	922.00
968.20	936.00
968.45	900.00
968.69	911.00
968.93	925.00
969.18	935.00
969.42	922.00
969.66	920.00
969.91	916.00
970.15	947.00
970.39	913.00
970.64	924.00
970.88	928.00
971.12	944.00
971.36	921.00
971.61	907.00
971.85	911.00
972.09	919.00
972.34	892.00
972.58	911.00
972.82	930.00
973.07	944.00
973.31	883.00
973.55	900.00
973.79	938.00
974.04	962.00
974.28	930.00
974.52	910.00
974.77	912.00
975.01	944.00
975.25	907.00
975.50	929.00
975.74	944.00
975.98	942.00
976.22	905.00
976.47	907.00
976.71	913.00
976.95	936.00
977.20	930.00
977.44	912.00
977.68	925.00
977.92	949.00
978.17	918.00
978.41	908.00
978.65	926.00
978.90	932.00
979.14	914.00
979.38	921.00
979.62	927.00
979.87	914.00
980.11	887.00
980.35	917.00
980.59	929.00
980.84	927.00
981.08	888.00
981.32	907.00
981.57	933.00
981.81	933.00
982.05	910.00
982.29	898.00
982.54	916.00
982.78	941.00
983.02	894.00
983.26	912.00
983.51	944.00
983.75	950.00
983.99	888.00
984.23	928.00
984.48	929.00
984.72	939.00
984.96	882.00
985.20	893.00
985.45	969.00
985.69	938.00
985.93	915.00
986.17	926.00
986.42	924.00
986.66	913.00
986.90	860.00
987.14	890.00
987.39	919.00
987.63	902.00
987.87	890.00
988.11	903.00
988.36	926.00
988.60	933.00
988.84	915.00
989.08	885.00
989.33	936.00
989.57	954.00
989.81	893.00
990.05	887.00
990.30	914.00
990.54	909.00
990.78	888.00
991.02	901.00
991.27	937.00
991.51	923.00
991.75	885.00
991.99	925.00
992.23	913.00
992.48	887.00
992.72	874.00
992.96	897.00
993.20	904.00
993.45	935.00
993.69	929.00
993.93	910.00
994.17	936.00
994.41	932.00
994.66	889.00
994.90	912.00
995.14	942.00
995.38	916.00
995.63	896.00
995.87	904.00
996.11	949.00
996.35	949.00
996.59	891.00
996.84	905.00
997.08	928.00
997.32	919.00
997.56	905.00
997.80	894.00
998.05	904.00
998.29	911.00
998.53	893.00
998.77	916.00
999.01	947.00
999.26	941.00
999.50	916.00
999.74	882.00
999.98	932.00
1000.22	944.00
1000.47	896.00
1000.71	894.00
1000.95	938.00
1001.19	939.00
1001.43	921.00
1001.68	928.00
1001.92	912.00
1002.16	915.00
1002.40	886.00
1002.64	910.00
1002.89	900.00
1003.13	913.00
1003.37	915.00
1003.61	898.00
1003.85	908.00
1004.10	918.00
1004.34	893.00
1004.58	901.00
1004.82	929.00
1005.06	918.00
1005.30	904.00
1005.55	894.00
1005.79	918.00
1006.03	917.00
1006.27	896.00
1006.51	908.00
1006.76	937.00
1007.00	950.00
1007.24	905.00
1007.48	925.00
1007.72	951.00
1007.96	932.00
1008.21	908.00
1008.45	920.00
1008.69	922.00
1008.93	967.00
1009.17	920.00
1009.41	964.00
1009.66	956.00
1009.90	938.00
1010.14	905.00
1010.38	925.00
1010.62	933.00
1010.86	950.00
1011.10	913.00
1011.35	916.00
1011.59	933.00
1011.83	894.00
1012.07	887.00
1012.31	932.00
1012.55	920.00
1012.80	930.00
1013.04	926.00
1013.28	927.00
1013.52	933.00
1013.76	942.00
1014.00	891.00
1014.24	901.00
1014.49	946.00
1014.73	964.00
1014.97	951.00
1015.21	936.00
1015.45	957.00
1015.69	917.00
1015.93	918.00
1016.18	921.00
1016.42	951.00
1016.66	964.00
1016.90	907.00
1017.14	898.00
1017.38	911.00
1017.62	928.00
1017.87	905.00
1018.11	900.00
1018.35	936.00
1018.59	927.00
1018.83	864.00
1019.07	906.00
1019.31	953.00
1019.55	958.00
1019.80	910.00
1020.04	924.00
1020.28	932.00
1020.52	938.00
1020.76	906.00
1021.00	891.00
1021.24	908.00
1021.48	917.00
1021.73	921.00
1021.97	932.00
1022.21	916.00
1022.45	928.00
1022.69	905.00
1022.93	898.00
1023.17	937.00
1023.41	967.00
1023.65	912.00
1023.90	945.00
1024.14	947.00
1024.38	894.00
1024.62	868.00
1024.86	907.00
1025.10	944.00
1025.34	922.00
1025.58	878.00
1025.82	896.00
1026.07	947.00
1026.31	945.00
1026.55	894.00
1026.79	888.00
1027.03	928.00
1027.27	949.00
1027.51	902.00
1027.75	873.00
1027.99	893.00
1028.23	930.00
1028.47	916.00
1028.72	910.00
1028.96	934.00
1029.20	939.00
1029.44	916.00
1029.68	910.00
1029.92	919.00
1030.16	930.00
1030.40	876.00
1030.64	897.00
1030.88	904.00
1031.12	895.00
1031.37	880.00
1031.61	918.00
1031.85	940.00
1032.09	949.00
1032.33	903.00
1032.57	961.00
1032.81	927.00
1033.05	941.00
1033.29	929.00
1033.53	906.00
1033.77	969.00
1034.01	965.00
1034.25	928.00
1034.50	925.00
1034.74	934.00
1034.98	949.00
1035.22	920.00
1035.46	914.00
1035.70	933.00
1035.94	947.00
1036.18	914.00
1036.42	895.00
1036.66	908.00
1036.90	926.00
1037.14	881.00
1037.38	903.00
1037.62	942.00
1037.86	917.00
1038.10	901.00
1038.35	884.00
1038.59	922.00
1038.83	940.00
1039.07	925.00
1039.31	939.00
1039.55	909.00
1039.79	939.00
1040.03	896.00
1040.27	879.00
1040.51	937.00
1040.75	953.00
1040.99	913.00
1041.23	922.00
1041.47	923.00
1041.71	958.00
1041.95	900.00
1042.19	891.00
1042.43	941.00
1042.67	951.00
1042.91	918.00
1043.15	910.00
1043.39	948.00
1043.64	924.00
1043.88	908.00
1044.12	924.00
1044.36	988.00
1044.60	960.00
1044.84	931.00
1045.08	939.00
1045.32	937.00
1045.56	942.00
1045.80	900.00
1046.04	908.00
1046.28	943.00
1046.52	938.00
1046.76	885.00
1047.00	889.00
1047.24	932.00
1047.48	915.00
1047.72	892.00
1047.96	920.00
1048.20	930.00
1048.44	917.00
1048.68	879.00
1048.92	920.00
1049.16	930.00
1049.40	943.00
1049.64	897.00
1049.88	930.00
1050.12	942.00
1050.36	959.00
1050.60	914.00
1050.84	909.00
1051.08	918.00
1051.32	934.00
1051.56	920.00
1051.80	912.00
1052.04	934.00
1052.28	946.00
1052.52	883.00
1052.76	885.00
1053.00	917.00
1053.24	924.00
1053.48	898.00
1053.72	918.00
1053.96	928.00
1054.20	934.00
1054.44	914.00
1054.68	932.00
1054.92	952.00
1055.16	910.00
1055.40	907.00
1055.64	933.00
1055.88	937.00
1056.12	951.00
1056.36	873.00
1056.60	898.00
1056.84	944.00
1057.08	921.00
1057.32	899.00
1057.56	890.00
1057.80	915.00
1058.04	970.00
1058.28	906.00
1058.52	898.00
1058.76	930.00
1059.00	966.00
1059.24	898.00
1059.48	893.00
1059.72	946.00
1059.96	935.00
1060.20	927.00
1060.44	946.00
1060.68	963.00
1060.92	929.00
1061.16	872.00
1061.40	897.00
1061.64	922.00
1061.88	929.00
1062.11	903.00
1062.35	905.00
1062.59	930.00
1062.83	955.00
1063.07	904.00
1063.31	887.00
1063.55	909.00
1063.79	940.00
1064.03	913.00
1064.27	904.00
1064.51	939.00
1064.75	933.00
1064.99	904.00
1065.23	910.00
1065.47	921.00
1065.71	937.00
1065.95	914.00
1066.19	924.00
1066.43	944.00
1066.67	938.00
1066.91	917.00
1067.15	899.00
1067.38	897.00
1067.62	917.00
1067.86	896.00
1068.10	927.00
1068.34	986.00
1068.58	974.00
1068.82	913.00
1069.06	870.00
1069.30	915.00
1069.54	953.00
1069.78	923.00
1070.02	917.00
1070.26	955.00
1070.50	950.00
1070.74	912.00
1070.98	940.00
1071.21	935.00
1071.45	924.00
1071.69	887.00
1071.93	904.00
1072.17	940.00
1072.41	931.00
1072.65	930.00
1072.89	935.00
1073.13	932.00
1073.37	914.00
1073.61	905.00
1073.85	930.00
1074.09	905.00
1074.32	920.00
1074.56	925.00
1074.80	982.00
1075.04	1206.00
1075.28	1050.00
1075.52	921.00
1075.76	934.00
1076.00	953.00
1076.24	941.00
1076.48	927.00
1076.72	919.00
1076.96	945.00
1077.19	953.00
1077.43	900.00
1077.67	922.00
1077.91	920.00
1078.15	907.00
1078.39	908.00
1078.63	899.00
1078.87	933.00
1079.11	939.00
1079.35	896.00
1079.58	894.00
1079.82	917.00
1080.06	920.00
1080.30	892.00
1080.54	936.00
1080.78	955.00
1081.02	925.00
1081.26	908.00
1081.50	920.00
1081.74	936.00
1081.97	934.00
1082.21	908.00
1082.45	930.00
1082.69	921.00
1082.93	913.00
1083.17	918.00
1083.41	909.00
1083.65	967.00
1083.88	960.00
1084.12	935.00
1084.36	926.00
1084.60	940.00
1084.84	944.00
1085.08	886.00
1085.32	908.00
1085.56	955.00
1085.80	943.00
1086.03	918.00
1086.27	889.00
1086.51	918.00
1086.75	942.00
1086.99	887.00
1087.23	890.00
1087.47	921.00
1087.70	931.00
1087.94	896.00
1088.18	944.00
1088.42	988.00
1088.66	924.00
1088.90	882.00
1089.14	897.00
1089.38	924.00
1089.61	941.00
1089.85	915.00
1090.09	899.00
1090.33	949.00
1090.57	961.00
1090.81	891.00
1091.05	906.00
1091.28	948.00
1091.52	949.00
1091.76	903.00
1092.00	930.00
1092.24	943.00
1092.48	973.00
1092.71	886.00
1092.95	940.00
1093.19	933.00
1093.43	938.00
1093.67	894.00
1093.91	916.00
1094.15	933.00
1094.38	940.00
1094.62	902.00
1094.86	906.00
1095.10	910.00
1095.34	910.00
1095.58	888.00
1095.81	917.00
1096.05	950.00
1096.29	958.00
1096.53	894.00
1096.77	928.00
1097.01	925.00
1097.24	942.00
1097.48	894.00
1097.72	919.00
1097.96	940.00
1098.20	945.00
1098.44	881.00
1098.67	868.00
1098.91	927.00
1099.15	937.00
1099.39	891.00
1099.63	924.00
1099.86	932.00
1100.10	920.00
1100.34	918.00
1100.58	895.00
1100.82	924.00
1101.06	923.00
1101.29	899.00
1101.53	931.00
1101.77	942.00
1102.01	922.00
1102.25	914.00
1102.48	919.00
1102.72	968.00
1102.96	939.00
1103.20	870.00
1103.44	900.00
1103.67	919.00
1103.91	927.00
1104.15	881.00
1104.39	891.00
1104.63	930.00
1104.86	918.00
1105.10	896.00
1105.34	922.00
1105.58	928.00
1105.82	915.00
1106.05	886.00
1106.29	920.00
1106.53	930.00
1106.77	956.00
1107.01	893.00
1107.24	931.00
1107.48	992.00
1107.72	966.00
1107.96	885.00
1108.20	910.00
1108.43	920.00
1108.67	924.00
1108.91	910.00
1109.15	903.00
1109.39	919.00
1109.62	932.00
1109.86	862.00
1110.10	908.00
1110.34	963.00
1110.57	979.00
1110.81	918.00
1111.05	915.00
1111.29	959.00
1111.53	981.00
1111.76	905.00
1112.00	958.00
1112.24	970.00
1112.48	950.00
1112.71	891.00
1112.95	906.00
1113.19	954.00
1113.43	924.00
1113.66	876.00
1113.90	928.00
1114.14	941.00
1114.38	948.00
1114.62	886.00
1114.85	932.00
1115.09	946.00
1115.33	983.00
1115.57	926.00
1115.80	907.00
1116.04	922.00
1116.28	938.00
1116.52	922.00
1116.75	900.00
1116.99	933.00
1117.23	966.00
1117.47	936.00
1117.70	952.00
1117.94	992.00
1118.18	924.00
1118.42	904.00
1118.65	930.00
1118.89	946.00
1119.13	933.00
1119.37	909.00
1119.60	923.00
1119.84	946.00
>>>>>End Processed Spectral Data<<<<<
