SpectraSuite Data File
++++++++++++++++++++++++++++++++++++
Date: Fri Nov 29 15:22:53 CET 2024
User: student
Dark Spectrum Present: No
Reference Spectrum Present: No
Number of Sampled Component Spectra: 1
Spectrometers: HR4C155
Integration Time (usec): 100000 (HR4C155)
Spectra Averaged: 1 (HR4C155)
Boxcar Smoothing: 0 (HR4C155)
Correct for Electrical Dark: No (HR4C155)
Strobe/Lamp Enabled: No (HR4C155)
Correct for Detector Non-linearity: No (HR4C155)
Correct for Stray Light: No (HR4C155)
Number of Pixels in Processed Spectrum: 3648
>>>>>Begin Processed Spectral Data<<<<<
195.39	755.00
195.66	755.00
195.93	755.00
196.20	709.00
196.46	747.00
196.73	871.00
197.00	892.00
197.27	887.00
197.54	913.00
197.81	898.00
198.08	892.00
198.35	935.00
198.61	947.00
198.88	926.00
199.15	900.00
199.42	930.00
199.69	945.00
199.96	927.00
200.23	934.00
200.49	925.00
200.76	942.00
201.03	930.00
201.30	914.00
201.57	984.00
201.84	994.00
202.11	941.00
202.38	960.00
202.64	960.00
202.91	966.00
203.18	921.00
203.45	990.00
203.72	1057.00
203.99	997.00
204.25	969.00
204.52	965.00
204.79	977.00
205.06	974.00
205.33	939.00
205.60	937.00
205.87	985.00
206.13	972.00
206.40	937.00
206.67	941.00
206.94	978.00
207.21	979.00
207.48	955.00
207.75	932.00
208.01	990.00
208.28	982.00
208.55	924.00
208.82	954.00
209.09	958.00
209.36	985.00
209.62	961.00
209.89	979.00
210.16	982.00
210.43	1016.00
210.70	947.00
210.97	976.00
211.23	1002.00
211.50	1000.00
211.77	952.00
212.04	967.00
212.31	964.00
212.58	981.00
212.84	943.00
213.11	948.00
213.38	917.00
213.65	960.00
213.92	945.00
214.18	945.00
214.45	993.00
214.72	983.00
214.99	934.00
215.26	954.00
215.53	948.00
215.79	984.00
216.06	976.00
216.33	984.00
216.60	949.00
216.87	994.00
217.13	922.00
217.40	954.00
217.67	990.00
217.94	1009.00
218.21	945.00
218.48	963.00
218.74	1033.00
219.01	984.00
219.28	911.00
219.55	923.00
219.82	974.00
220.08	973.00
220.35	926.00
220.62	937.00
220.89	978.00
221.16	998.00
221.42	976.00
221.69	983.00
221.96	981.00
222.23	995.00
222.50	976.00
222.76	975.00
223.03	967.00
223.30	943.00
223.57	934.00
223.84	928.00
224.10	925.00
224.37	971.00
224.64	921.00
224.91	944.00
225.18	984.00
225.44	985.00
225.71	937.00
225.98	967.00
226.25	1001.00
226.51	1016.00
226.78	952.00
227.05	953.00
227.32	960.00
227.59	958.00
227.85	950.00
228.12	960.00
228.39	1002.00
228.66	1001.00
228.92	1000.00
229.19	963.00
229.46	975.00
229.73	966.00
230.00	937.00
230.26	963.00
230.53	992.00
230.80	980.00
231.07	921.00
231.33	931.00
231.60	971.00
231.87	983.00
232.14	948.00
232.41	987.00
232.67	971.00
232.94	985.00
233.21	928.00
233.48	964.00
233.74	966.00
234.01	966.00
234.28	940.00
234.55	952.00
234.81	945.00
235.08	1013.00
235.35	961.00
235.62	940.00
235.88	950.00
236.15	984.00
236.42	965.00
236.69	962.00
236.95	988.00
237.22	973.00
237.49	942.00
237.76	948.00
238.02	995.00
238.29	1026.00
238.56	932.00
238.83	938.00
239.09	956.00
239.36	969.00
239.63	927.00
239.90	949.00
240.16	1001.00
240.43	1041.00
240.70	955.00
240.97	950.00
241.23	954.00
241.50	956.00
241.77	947.00
242.04	938.00
242.30	920.00
242.57	945.00
242.84	915.00
243.11	926.00
243.37	904.00
243.64	988.00
243.91	947.00
244.18	950.00
244.44	936.00
244.71	935.00
244.98	943.00
245.24	937.00
245.51	963.00
245.78	974.00
246.05	918.00
246.31	927.00
246.58	967.00
246.85	964.00
247.12	961.00
247.38	985.00
247.65	978.00
247.92	994.00
248.18	945.00
248.45	960.00
248.72	956.00
248.99	976.00
249.25	920.00
249.52	923.00
249.79	981.00
250.05	976.00
250.32	934.00
250.59	941.00
250.86	942.00
251.12	952.00
251.39	910.00
251.66	943.00
251.92	995.00
252.19	1009.00
252.46	929.00
252.73	971.00
252.99	982.00
253.26	1003.00
253.53	926.00
253.79	945.00
254.06	962.00
254.33	944.00
254.60	924.00
254.86	934.00
255.13	981.00
255.40	1001.00
255.66	942.00
255.93	975.00
256.20	992.00
256.46	991.00
256.73	944.00
257.00	962.00
257.26	979.00
257.53	1000.00
257.80	964.00
258.07	976.00
258.33	1022.00
258.60	998.00
258.87	939.00
259.13	954.00
259.40	942.00
259.67	976.00
259.93	928.00
260.20	982.00
260.47	989.00
260.73	970.00
261.00	964.00
261.27	974.00
261.53	974.00
261.80	968.00
262.07	912.00
262.34	942.00
262.60	934.00
262.87	952.00
263.14	923.00
263.40	952.00
263.67	938.00
263.94	964.00
264.20	939.00
264.47	915.00
264.74	936.00
265.00	948.00
265.27	923.00
265.54	945.00
265.80	976.00
266.07	992.00
266.34	928.00
266.60	923.00
266.87	956.00
267.14	979.00
267.40	937.00
267.67	916.00
267.94	954.00
268.20	952.00
268.47	924.00
268.74	939.00
269.00	953.00
269.27	928.00
269.54	886.00
269.80	913.00
270.07	969.00
270.33	943.00
270.60	940.00
270.87	952.00
271.13	950.00
271.40	970.00
271.67	908.00
271.93	909.00
272.20	968.00
272.47	940.00
272.73	899.00
273.00	945.00
273.27	972.00
273.53	988.00
273.80	935.00
274.07	936.00
274.33	942.00
274.60	964.00
274.86	924.00
275.13	933.00
275.40	933.00
275.66	1004.00
275.93	933.00
276.20	921.00
276.46	942.00
276.73	941.00
277.00	948.00
277.26	970.00
277.53	1000.00
277.79	980.00
278.06	941.00
278.33	979.00
278.59	964.00
278.86	956.00
279.13	945.00
279.39	954.00
279.66	975.00
279.93	994.00
280.19	937.00
280.46	927.00
280.72	936.00
280.99	958.00
281.26	939.00
281.52	927.00
281.79	934.00
282.05	969.00
282.32	935.00
282.59	932.00
282.85	987.00
283.12	971.00
283.39	923.00
283.65	965.00
283.92	957.00
284.18	974.00
284.45	948.00
284.72	956.00
284.98	943.00
285.25	935.00
285.51	956.00
285.78	952.00
286.05	960.00
286.31	952.00
286.58	905.00
286.84	923.00
287.11	938.00
287.38	956.00
287.64	957.00
287.91	925.00
288.17	964.00
288.44	976.00
288.71	923.00
288.97	941.00
289.24	972.00
289.50	945.00
289.77	947.00
290.04	910.00
290.30	937.00
290.57	984.00
290.83	922.00
291.10	937.00
291.37	976.00
291.63	945.00
291.90	968.00
292.16	969.00
292.43	979.00
292.70	951.00
292.96	906.00
293.23	921.00
293.49	944.00
293.76	978.00
294.02	930.00
294.29	925.00
294.56	954.00
294.82	973.00
295.09	935.00
295.35	922.00
295.62	976.00
295.89	985.00
296.15	920.00
296.42	921.00
296.68	948.00
296.95	953.00
297.21	952.00
297.48	937.00
297.75	946.00
298.01	999.00
298.28	933.00
298.54	951.00
298.81	958.00
299.07	971.00
299.34	922.00
299.61	926.00
299.87	957.00
300.14	943.00
300.40	945.00
300.67	941.00
300.93	977.00
301.20	1009.00
301.46	933.00
301.73	946.00
302.00	973.00
302.26	953.00
302.53	935.00
302.79	936.00
303.06	968.00
303.32	1005.00
303.59	933.00
303.85	931.00
304.12	948.00
304.39	978.00
304.65	941.00
304.92	922.00
305.18	952.00
305.45	970.00
305.71	936.00
305.98	952.00
306.24	956.00
306.51	953.00
306.77	931.00
307.04	934.00
307.31	978.00
307.57	992.00
307.84	923.00
308.10	942.00
308.37	939.00
308.63	956.00
308.90	923.00
309.16	946.00
309.43	983.00
309.69	966.00
309.96	950.00
310.22	942.00
310.49	955.00
310.76	968.00
311.02	932.00
311.29	935.00
311.55	948.00
311.82	978.00
312.08	942.00
312.35	955.00
312.61	980.00
312.88	996.00
313.14	937.00
313.41	905.00
313.67	936.00
313.94	967.00
314.20	953.00
314.47	981.00
314.73	957.00
315.00	931.00
315.26	922.00
315.53	948.00
315.79	965.00
316.06	940.00
316.32	927.00
316.59	953.00
316.85	962.00
317.12	990.00
317.39	943.00
317.65	946.00
317.92	950.00
318.18	972.00
318.45	941.00
318.71	990.00
318.98	977.00
319.24	979.00
319.51	944.00
319.77	936.00
320.04	941.00
320.30	958.00
320.57	944.00
320.83	932.00
321.10	934.00
321.36	945.00
321.63	919.00
321.89	930.00
322.16	990.00
322.42	967.00
322.69	914.00
322.95	925.00
323.22	956.00
323.48	982.00
323.75	915.00
324.01	922.00
324.28	957.00
324.54	966.00
324.80	925.00
325.07	951.00
325.33	964.00
325.60	950.00
325.86	898.00
326.13	931.00
326.39	943.00
326.66	951.00
326.92	899.00
327.19	919.00
327.45	990.00
327.72	992.00
327.98	930.00
328.25	932.00
328.51	950.00
328.78	954.00
329.04	923.00
329.31	951.00
329.57	977.00
329.84	965.00
330.10	928.00
330.37	935.00
330.63	994.00
330.89	997.00
331.16	925.00
331.42	925.00
331.69	983.00
331.95	950.00
332.22	946.00
332.48	973.00
332.75	965.00
333.01	938.00
333.28	935.00
333.54	936.00
333.81	967.00
334.07	974.00
334.34	940.00
334.60	951.00
334.86	1004.00
335.13	999.00
335.39	953.00
335.66	930.00
335.92	968.00
336.19	965.00
336.45	880.00
336.72	914.00
336.98	922.00
337.24	965.00
337.51	909.00
337.77	930.00
338.04	938.00
338.30	949.00
338.57	916.00
338.83	944.00
339.10	972.00
339.36	973.00
339.63	937.00
339.89	908.00
340.15	937.00
340.42	971.00
340.68	957.00
340.95	948.00
341.21	956.00
341.48	951.00
341.74	902.00
342.00	910.00
342.27	945.00
342.53	953.00
342.80	921.00
343.06	916.00
343.33	965.00
343.59	985.00
343.85	935.00
344.12	945.00
344.38	1005.00
344.65	975.00
344.91	937.00
345.18	929.00
345.44	942.00
345.70	937.00
345.97	883.00
346.23	930.00
346.50	964.00
346.76	972.00
347.03	944.00
347.29	939.00
347.55	938.00
347.82	947.00
348.08	909.00
348.35	916.00
348.61	999.00
348.87	971.00
349.14	909.00
349.40	908.00
349.67	966.00
349.93	953.00
350.20	931.00
350.46	948.00
350.72	986.00
350.99	959.00
351.25	945.00
351.52	938.00
351.78	935.00
352.04	958.00
352.31	945.00
352.57	948.00
352.84	955.00
353.10	967.00
353.36	936.00
353.63	928.00
353.89	948.00
354.16	970.00
354.42	930.00
354.68	933.00
354.95	989.00
355.21	992.00
355.48	923.00
355.74	940.00
356.00	982.00
356.27	981.00
356.53	932.00
356.80	916.00
357.06	946.00
357.32	965.00
357.59	964.00
357.85	977.00
358.11	1015.00
358.38	977.00
358.64	938.00
358.91	944.00
359.17	962.00
359.43	988.00
359.70	956.00
359.96	943.00
360.22	974.00
360.49	941.00
360.75	932.00
361.02	932.00
361.28	944.00
361.54	956.00
361.81	916.00
362.07	950.00
362.33	937.00
362.60	935.00
362.86	907.00
363.13	950.00
363.39	983.00
363.65	978.00
363.92	902.00
364.18	895.00
364.44	934.00
364.71	964.00
364.97	934.00
365.24	934.00
365.50	967.00
365.76	973.00
366.03	936.00
366.29	954.00
366.55	968.00
366.82	946.00
367.08	901.00
367.34	931.00
367.61	963.00
367.87	975.00
368.13	950.00
368.40	945.00
368.66	1015.00
368.93	978.00
369.19	893.00
369.45	918.00
369.72	948.00
369.98	932.00
370.24	903.00
370.51	941.00
370.77	962.00
371.03	964.00
371.30	934.00
371.56	963.00
371.82	982.00
372.09	969.00
372.35	960.00
372.61	938.00
372.88	928.00
373.14	952.00
373.40	937.00
373.67	917.00
373.93	951.00
374.19	980.00
374.46	917.00
374.72	910.00
374.98	954.00
375.25	962.00
375.51	946.00
375.77	950.00
376.04	956.00
376.30	979.00
376.56	918.00
376.83	934.00
377.09	960.00
377.35	971.00
377.62	948.00
377.88	940.00
378.14	953.00
378.41	976.00
378.67	933.00
378.93	927.00
379.20	972.00
379.46	950.00
379.72	917.00
379.99	927.00
380.25	935.00
380.51	919.00
380.77	921.00
381.04	946.00
381.30	983.00
381.56	990.00
381.83	949.00
382.09	932.00
382.35	946.00
382.62	965.00
382.88	960.00
383.14	952.00
383.41	957.00
383.67	944.00
383.93	947.00
384.20	943.00
384.46	958.00
384.72	974.00
384.98	903.00
385.25	948.00
385.51	981.00
385.77	952.00
386.04	928.00
386.30	922.00
386.56	971.00
386.82	1003.00
387.09	930.00
387.35	959.00
387.61	1043.00
387.88	991.00
388.14	956.00
388.40	957.00
388.67	954.00
388.93	953.00
389.19	929.00
389.45	934.00
389.72	962.00
389.98	965.00
390.24	936.00
390.51	936.00
390.77	981.00
391.03	981.00
391.29	920.00
391.56	918.00
391.82	966.00
392.08	994.00
392.35	933.00
392.61	931.00
392.87	976.00
393.13	970.00
393.40	912.00
393.66	919.00
393.92	951.00
394.18	954.00
394.45	918.00
394.71	932.00
394.97	948.00
395.24	945.00
395.50	904.00
395.76	949.00
396.02	975.00
396.29	946.00
396.55	889.00
396.81	890.00
397.07	939.00
397.34	923.00
397.60	903.00
397.86	906.00
398.12	918.00
398.39	977.00
398.65	912.00
398.91	932.00
399.17	949.00
399.44	915.00
399.70	857.00
399.96	916.00
400.22	926.00
400.49	976.00
400.75	950.00
401.01	927.00
401.27	940.00
401.54	968.00
401.80	938.00
402.06	913.00
402.32	973.00
402.59	966.00
402.85	925.00
403.11	932.00
403.37	945.00
403.64	974.00
403.90	931.00
404.16	930.00
404.42	938.00
404.69	923.00
404.95	919.00
405.21	900.00
405.47	937.00
405.74	958.00
406.00	931.00
406.26	917.00
406.52	940.00
406.79	977.00
407.05	924.00
407.31	920.00
407.57	926.00
407.83	940.00
408.10	900.00
408.36	905.00
408.62	943.00
408.88	935.00
409.15	919.00
409.41	886.00
409.67	921.00
409.93	966.00
410.20	942.00
410.46	934.00
410.72	937.00
410.98	944.00
411.24	930.00
411.51	935.00
411.77	941.00
412.03	957.00
412.29	956.00
412.55	966.00
412.82	962.00
413.08	968.00
413.34	945.00
413.60	932.00
413.87	948.00
414.13	966.00
414.39	911.00
414.65	933.00
414.91	960.00
415.18	942.00
415.44	920.00
415.70	930.00
415.96	946.00
416.22	957.00
416.49	921.00
416.75	918.00
417.01	942.00
417.27	946.00
417.53	950.00
417.80	959.00
418.06	981.00
418.32	981.00
418.58	916.00
418.84	913.00
419.11	961.00
419.37	964.00
419.63	908.00
419.89	917.00
420.15	931.00
420.42	932.00
420.68	916.00
420.94	931.00
421.20	948.00
421.46	962.00
421.72	950.00
421.99	930.00
422.25	949.00
422.51	948.00
422.77	939.00
423.03	940.00
423.30	942.00
423.56	973.00
423.82	957.00
424.08	955.00
424.34	971.00
424.60	976.00
424.87	932.00
425.13	926.00
425.39	926.00
425.65	941.00
425.91	916.00
426.18	942.00
426.44	948.00
426.70	924.00
426.96	893.00
427.22	903.00
427.48	943.00
427.75	936.00
428.01	894.00
428.27	922.00
428.53	960.00
428.79	924.00
429.05	914.00
429.32	924.00
429.58	987.00
429.84	945.00
430.10	945.00
430.36	941.00
430.62	977.00
430.88	961.00
431.15	931.00
431.41	948.00
431.67	965.00
431.93	946.00
432.19	912.00
432.45	940.00
432.72	948.00
432.98	948.00
433.24	971.00
433.50	1029.00
433.76	945.00
434.02	929.00
434.28	904.00
434.55	930.00
434.81	950.00
435.07	965.00
435.33	900.00
435.59	914.00
435.85	933.00
436.11	954.00
436.38	913.00
436.64	917.00
436.90	949.00
437.16	945.00
437.42	935.00
437.68	939.00
437.94	964.00
438.21	959.00
438.47	954.00
438.73	935.00
438.99	914.00
439.25	941.00
439.51	924.00
439.77	934.00
440.03	949.00
440.30	964.00
440.56	927.00
440.82	958.00
441.08	972.00
441.34	959.00
441.60	909.00
441.86	940.00
442.12	958.00
442.39	952.00
442.65	921.00
442.91	920.00
443.17	924.00
443.43	954.00
443.69	948.00
443.95	933.00
444.21	956.00
444.47	971.00
444.74	910.00
445.00	928.00
445.26	954.00
445.52	946.00
445.78	910.00
446.04	915.00
446.30	989.00
446.56	978.00
446.82	922.00
447.09	934.00
447.35	969.00
447.61	954.00
447.87	914.00
448.13	929.00
448.39	1000.00
448.65	973.00
448.91	922.00
449.17	926.00
449.43	932.00
449.70	946.00
449.96	910.00
450.22	914.00
450.48	959.00
450.74	986.00
451.00	930.00
451.26	922.00
451.52	946.00
451.78	936.00
452.04	925.00
452.31	959.00
452.57	956.00
452.83	932.00
453.09	925.00
453.35	928.00
453.61	945.00
453.87	952.00
454.13	955.00
454.39	957.00
454.65	1004.00
454.91	992.00
455.17	917.00
455.44	926.00
455.70	951.00
455.96	946.00
456.22	904.00
456.48	908.00
456.74	945.00
457.00	905.00
457.26	875.00
457.52	921.00
457.78	922.00
458.04	926.00
458.30	893.00
458.56	929.00
458.82	947.00
459.09	919.00
459.35	871.00
459.61	896.00
459.87	948.00
460.13	982.00
460.39	940.00
460.65	910.00
460.91	958.00
461.17	932.00
461.43	886.00
461.69	898.00
461.95	950.00
462.21	923.00
462.47	936.00
462.73	961.00
462.99	973.00
463.26	957.00
463.52	916.00
463.78	909.00
464.04	929.00
464.30	945.00
464.56	913.00
464.82	928.00
465.08	982.00
465.34	981.00
465.60	924.00
465.86	933.00
466.12	943.00
466.38	928.00
466.64	917.00
466.90	924.00
467.16	956.00
467.42	971.00
467.68	906.00
467.94	928.00
468.20	965.00
468.46	949.00
468.72	909.00
468.98	925.00
469.25	942.00
469.51	919.00
469.77	939.00
470.03	927.00
470.29	932.00
470.55	951.00
470.81	934.00
471.07	943.00
471.33	946.00
471.59	959.00
471.85	918.00
472.11	939.00
472.37	957.00
472.63	951.00
472.89	940.00
473.15	936.00
473.41	953.00
473.67	930.00
473.93	883.00
474.19	894.00
474.45	924.00
474.71	942.00
474.97	915.00
475.23	913.00
475.49	961.00
475.75	934.00
476.01	924.00
476.27	949.00
476.53	994.00
476.79	961.00
477.05	925.00
477.31	915.00
477.57	947.00
477.83	958.00
478.09	902.00
478.35	926.00
478.61	972.00
478.87	944.00
479.13	901.00
479.39	965.00
479.65	967.00
479.91	977.00
480.17	945.00
480.43	961.00
480.69	936.00
480.95	948.00
481.21	915.00
481.47	944.00
481.73	930.00
481.99	931.00
482.25	916.00
482.51	901.00
482.77	954.00
483.03	954.00
483.29	922.00
483.55	929.00
483.81	971.00
484.07	946.00
484.33	900.00
484.59	914.00
484.85	954.00
485.11	951.00
485.37	920.00
485.63	935.00
485.89	925.00
486.15	939.00
486.41	915.00
486.67	929.00
486.93	955.00
487.19	933.00
487.45	921.00
487.71	927.00
487.97	960.00
488.23	970.00
488.49	920.00
488.75	909.00
489.01	958.00
489.27	979.00
489.53	931.00
489.79	916.00
490.05	945.00
490.31	963.00
490.57	946.00
490.83	970.00
491.08	940.00
491.34	930.00
491.60	902.00
491.86	939.00
492.12	983.00
492.38	966.00
492.64	913.00
492.90	925.00
493.16	964.00
493.42	924.00
493.68	889.00
493.94	941.00
494.20	905.00
494.46	938.00
494.72	924.00
494.98	918.00
495.24	920.00
495.50	933.00
495.76	952.00
496.02	945.00
496.28	949.00
496.54	957.00
496.80	921.00
497.05	910.00
497.31	955.00
497.57	962.00
497.83	923.00
498.09	943.00
498.35	955.00
498.61	950.00
498.87	947.00
499.13	940.00
499.39	952.00
499.65	938.00
499.91	927.00
500.17	903.00
500.43	1007.00
500.69	1037.00
500.95	910.00
501.20	932.00
501.46	957.00
501.72	976.00
501.98	964.00
502.24	958.00
502.50	969.00
502.76	932.00
503.02	921.00
503.28	932.00
503.54	978.00
503.80	984.00
504.06	937.00
504.32	954.00
504.58	953.00
504.83	948.00
505.09	908.00
505.35	938.00
505.61	932.00
505.87	939.00
506.13	930.00
506.39	916.00
506.65	962.00
506.91	992.00
507.17	914.00
507.43	926.00
507.68	938.00
507.94	980.00
508.20	918.00
508.46	911.00
508.72	970.00
508.98	971.00
509.24	908.00
509.50	952.00
509.76	935.00
510.02	946.00
510.28	914.00
510.53	915.00
510.79	954.00
511.05	926.00
511.31	902.00
511.57	920.00
511.83	940.00
512.09	971.00
512.35	926.00
512.61	938.00
512.87	946.00
513.12	968.00
513.38	909.00
513.64	931.00
513.90	951.00
514.16	985.00
514.42	927.00
514.68	926.00
514.94	956.00
515.20	946.00
515.45	897.00
515.71	913.00
515.97	936.00
516.23	933.00
516.49	905.00
516.75	913.00
517.01	925.00
517.27	914.00
517.53	893.00
517.78	929.00
518.04	939.00
518.30	921.00
518.56	917.00
518.82	956.00
519.08	973.00
519.34	932.00
519.60	911.00
519.85	934.00
520.11	922.00
520.37	937.00
520.63	931.00
520.89	938.00
521.15	951.00
521.41	932.00
521.66	894.00
521.92	914.00
522.18	970.00
522.44	974.00
522.70	918.00
522.96	904.00
523.22	973.00
523.48	961.00
523.73	924.00
523.99	923.00
524.25	986.00
524.51	972.00
524.77	918.00
525.03	918.00
525.29	944.00
525.54	955.00
525.80	912.00
526.06	901.00
526.32	923.00
526.58	917.00
526.84	898.00
527.09	909.00
527.35	925.00
527.61	930.00
527.87	923.00
528.13	950.00
528.39	934.00
528.65	934.00
528.90	882.00
529.16	921.00
529.42	930.00
529.68	922.00
529.94	900.00
530.20	917.00
530.45	916.00
530.71	949.00
530.97	905.00
531.23	929.00
531.49	952.00
531.75	936.00
532.00	919.00
532.26	913.00
532.52	950.00
532.78	928.00
533.04	896.00
533.30	914.00
533.55	929.00
533.81	933.00
534.07	891.00
534.33	918.00
534.59	963.00
534.85	965.00
535.10	906.00
535.36	913.00
535.62	946.00
535.88	934.00
536.14	893.00
536.39	905.00
536.65	977.00
536.91	963.00
537.17	909.00
537.43	930.00
537.69	968.00
537.94	950.00
538.20	895.00
538.46	939.00
538.72	937.00
538.98	941.00
539.23	907.00
539.49	899.00
539.75	955.00
540.01	944.00
540.27	921.00
540.52	949.00
540.78	958.00
541.04	954.00
541.30	904.00
541.56	895.00
541.81	977.00
542.07	1026.00
542.33	923.00
542.59	921.00
542.85	941.00
543.10	949.00
543.36	896.00
543.62	928.00
543.88	937.00
544.14	936.00
544.39	921.00
544.65	931.00
544.91	981.00
545.17	947.00
545.43	918.00
545.68	915.00
545.94	937.00
546.20	959.00
546.46	938.00
546.71	976.00
546.97	958.00
547.23	976.00
547.49	930.00
547.75	933.00
548.00	941.00
548.26	968.00
548.52	917.00
548.78	921.00
549.03	926.00
549.29	934.00
549.55	897.00
549.81	924.00
550.07	934.00
550.32	930.00
550.58	897.00
550.84	943.00
551.10	940.00
551.35	928.00
551.61	909.00
551.87	932.00
552.13	940.00
552.39	923.00
552.64	899.00
552.90	922.00
553.16	949.00
553.42	935.00
553.67	898.00
553.93	933.00
554.19	952.00
554.45	956.00
554.70	921.00
554.96	910.00
555.22	935.00
555.48	952.00
555.73	917.00
555.99	921.00
556.25	948.00
556.51	943.00
556.76	922.00
557.02	942.00
557.28	958.00
557.54	937.00
557.79	918.00
558.05	930.00
558.31	936.00
558.57	946.00
558.82	908.00
559.08	886.00
559.34	910.00
559.60	934.00
559.85	906.00
560.11	945.00
560.37	951.00
560.63	925.00
560.88	911.00
561.14	909.00
561.40	966.00
561.66	918.00
561.91	900.00
562.17	918.00
562.43	936.00
562.68	951.00
562.94	950.00
563.20	958.00
563.46	965.00
563.71	973.00
563.97	907.00
564.23	940.00
564.49	956.00
564.74	927.00
565.00	904.00
565.26	929.00
565.51	936.00
565.77	916.00
566.03	894.00
566.29	926.00
566.54	917.00
566.80	925.00
567.06	903.00
567.31	939.00
567.57	947.00
567.83	910.00
568.09	912.00
568.34	906.00
568.60	936.00
568.86	972.00
569.11	937.00
569.37	909.00
569.63	949.00
569.89	963.00
570.14	887.00
570.40	913.00
570.66	934.00
570.91	917.00
571.17	908.00
571.43	931.00
571.69	956.00
571.94	951.00
572.20	913.00
572.46	917.00
572.71	946.00
572.97	961.00
573.23	925.00
573.48	905.00
573.74	929.00
574.00	951.00
574.26	912.00
574.51	934.00
574.77	969.00
575.03	942.00
575.28	910.00
575.54	913.00
575.80	928.00
576.05	950.00
576.31	902.00
576.57	893.00
576.82	931.00
577.08	938.00
577.34	902.00
577.59	921.00
577.85	967.00
578.11	916.00
578.37	914.00
578.62	915.00
578.88	963.00
579.14	974.00
579.39	917.00
579.65	929.00
579.91	936.00
580.16	953.00
580.42	925.00
580.68	928.00
580.93	953.00
581.19	938.00
581.45	893.00
581.70	926.00
581.96	939.00
582.22	956.00
582.47	926.00
582.73	947.00
582.99	969.00
583.24	947.00
583.50	899.00
583.76	926.00
584.01	945.00
584.27	969.00
584.53	926.00
584.78	936.00
585.04	931.00
585.30	933.00
585.55	922.00
585.81	920.00
586.07	969.00
586.32	972.00
586.58	921.00
586.83	915.00
587.09	948.00
587.35	943.00
587.60	922.00
587.86	937.00
588.12	945.00
588.37	947.00
588.63	927.00
588.89	925.00
589.14	959.00
589.40	953.00
589.66	932.00
589.91	947.00
590.17	957.00
590.43	921.00
590.68	903.00
590.94	926.00
591.19	964.00
591.45	950.00
591.71	906.00
591.96	916.00
592.22	936.00
592.48	962.00
592.73	916.00
592.99	921.00
593.25	954.00
593.50	959.00
593.76	911.00
594.01	922.00
594.27	970.00
594.53	942.00
594.78	908.00
595.04	925.00
595.30	956.00
595.55	945.00
595.81	894.00
596.06	950.00
596.32	984.00
596.58	972.00
596.83	932.00
597.09	960.00
597.35	964.00
597.60	935.00
597.86	900.00
598.11	935.00
598.37	965.00
598.63	951.00
598.88	898.00
599.14	907.00
599.39	976.00
599.65	957.00
599.91	894.00
600.16	918.00
600.42	948.00
600.67	972.00
600.93	922.00
601.19	938.00
601.44	1002.00
601.70	989.00
601.95	935.00
602.21	950.00
602.47	932.00
602.72	964.00
602.98	928.00
603.23	957.00
603.49	979.00
603.75	980.00
604.00	929.00
604.26	931.00
604.51	950.00
604.77	991.00
605.03	916.00
605.28	923.00
605.54	980.00
605.79	997.00
606.05	916.00
606.31	930.00
606.56	958.00
606.82	996.00
607.07	966.00
607.33	964.00
607.59	985.00
607.84	958.00
608.10	920.00
608.35	932.00
608.61	974.00
608.86	993.00
609.12	956.00
609.38	983.00
609.63	1019.00
609.89	977.00
610.14	946.00
610.40	973.00
610.65	987.00
610.91	989.00
611.17	956.00
611.42	970.00
611.68	1015.00
611.93	1018.00
612.19	990.00
612.44	996.00
612.70	1005.00
612.96	984.00
613.21	965.00
613.47	971.00
613.72	981.00
613.98	993.00
614.23	977.00
614.49	1000.00
614.75	1005.00
615.00	1010.00
615.26	1000.00
615.51	974.00
615.77	1016.00
616.02	1051.00
616.28	1040.00
616.53	1040.00
616.79	1036.00
617.05	1035.00
617.30	1016.00
617.56	1045.00
617.81	1081.00
618.07	1046.00
618.32	1032.00
618.58	1066.00
618.83	1097.00
619.09	1116.00
619.34	1035.00
619.60	1050.00
619.86	1085.00
620.11	1143.00
620.37	1103.00
620.62	1098.00
620.88	1115.00
621.13	1129.00
621.39	1096.00
621.64	1101.00
621.90	1140.00
622.15	1127.00
622.41	1136.00
622.66	1163.00
622.92	1185.00
623.18	1205.00
623.43	1136.00
623.69	1201.00
623.94	1249.00
624.20	1248.00
624.45	1202.00
624.71	1229.00
624.96	1245.00
625.22	1278.00
625.47	1240.00
625.73	1270.00
625.98	1322.00
626.24	1319.00
626.49	1305.00
626.75	1352.00
627.00	1399.00
627.26	1397.00
627.51	1379.00
627.77	1402.00
628.02	1419.00
628.28	1454.00
628.53	1415.00
628.79	1456.00
629.05	1500.00
629.30	1484.00
629.56	1456.00
629.81	1503.00
630.07	1508.00
630.32	1554.00
630.58	1571.00
630.83	1629.00
631.09	1664.00
631.34	1677.00
631.60	1629.00
631.85	1669.00
632.11	1705.00
632.36	1782.00
632.62	1901.00
632.87	2003.00
633.13	2006.00
633.38	2009.00
633.64	2079.00
633.89	2118.00
634.15	2066.00
634.40	2185.00
634.66	2241.00
634.91	2248.00
635.17	2264.00
635.42	2274.00
635.68	2269.00
635.93	2334.00
636.18	2432.00
636.44	2542.00
636.69	2537.00
636.95	2529.00
637.20	2614.00
637.46	2528.00
637.71	2452.00
637.97	2467.00
638.22	2551.00
638.48	2598.00
638.73	2572.00
638.99	2521.00
639.24	2581.00
639.50	2595.00
639.75	2577.00
640.01	2631.00
640.26	2701.00
640.52	2762.00
640.77	2646.00
641.03	2687.00
641.28	2688.00
641.54	2757.00
641.79	2731.00
642.04	2699.00
642.30	2689.00
642.55	2564.00
642.81	2488.00
643.06	2431.00
643.32	2409.00
643.57	2395.00
643.83	2339.00
644.08	2240.00
644.34	2181.00
644.59	2005.00
644.85	1893.00
645.10	1903.00
645.35	1887.00
645.61	1847.00
645.86	1838.00
646.12	1755.00
646.37	1809.00
646.63	1879.00
646.88	1781.00
647.14	1685.00
647.39	1668.00
647.65	1715.00
647.90	1643.00
648.15	1638.00
648.41	1585.00
648.66	1556.00
648.92	1500.00
649.17	1462.00
649.43	1464.00
649.68	1414.00
649.94	1379.00
650.19	1400.00
650.44	1407.00
650.70	1376.00
650.95	1284.00
651.21	1310.00
651.46	1321.00
651.72	1283.00
651.97	1242.00
652.23	1217.00
652.48	1216.00
652.73	1227.00
652.99	1174.00
653.24	1165.00
653.50	1164.00
653.75	1146.00
654.01	1127.00
654.26	1122.00
654.51	1135.00
654.77	1130.00
655.02	1082.00
655.28	1034.00
655.53	1048.00
655.79	1085.00
656.04	1055.00
656.29	1039.00
656.55	1037.00
656.80	1057.00
657.06	1004.00
657.31	1021.00
657.56	1027.00
657.82	1014.00
658.07	1001.00
658.33	1014.00
658.58	1021.00
658.84	1018.00
659.09	980.00
659.34	995.00
659.60	1030.00
659.85	1006.00
660.11	970.00
660.36	970.00
660.61	982.00
660.87	965.00
661.12	945.00
661.38	961.00
661.63	976.00
661.88	994.00
662.14	982.00
662.39	962.00
662.65	1002.00
662.90	1027.00
663.15	956.00
663.41	955.00
663.66	1000.00
663.92	989.00
664.17	939.00
664.42	942.00
664.68	971.00
664.93	971.00
665.19	926.00
665.44	930.00
665.69	927.00
665.95	963.00
666.20	920.00
666.45	954.00
666.71	977.00
666.96	984.00
667.22	911.00
667.47	937.00
667.72	944.00
667.98	951.00
668.23	934.00
668.49	966.00
668.74	977.00
668.99	968.00
669.25	918.00
669.50	920.00
669.75	951.00
670.01	955.00
670.26	891.00
670.52	920.00
670.77	966.00
671.02	960.00
671.28	916.00
671.53	934.00
671.78	943.00
672.04	943.00
672.29	918.00
672.54	906.00
672.80	952.00
673.05	936.00
673.31	900.00
673.56	950.00
673.81	953.00
674.07	941.00
674.32	928.00
674.57	926.00
674.83	924.00
675.08	966.00
675.33	956.00
675.59	941.00
675.84	961.00
676.09	938.00
676.35	933.00
676.60	951.00
676.86	953.00
677.11	973.00
677.36	916.00
677.62	926.00
677.87	978.00
678.12	999.00
678.38	904.00
678.63	910.00
678.88	966.00
679.14	971.00
679.39	897.00
679.64	942.00
679.90	930.00
680.15	948.00
680.40	935.00
680.66	913.00
680.91	956.00
681.16	947.00
681.42	903.00
681.67	908.00
681.92	915.00
682.18	973.00
682.43	907.00
682.68	904.00
682.94	936.00
683.19	930.00
683.44	902.00
683.70	936.00
683.95	941.00
684.20	938.00
684.46	925.00
684.71	952.00
684.96	945.00
685.22	949.00
685.47	917.00
685.72	933.00
685.98	947.00
686.23	900.00
686.48	897.00
686.74	937.00
686.99	962.00
687.24	926.00
687.50	900.00
687.75	906.00
688.00	938.00
688.25	952.00
688.51	918.00
688.76	955.00
689.01	907.00
689.27	907.00
689.52	884.00
689.77	908.00
690.03	906.00
690.28	919.00
690.53	925.00
690.79	933.00
691.04	924.00
691.29	951.00
691.54	894.00
691.80	929.00
692.05	946.00
692.30	957.00
692.56	909.00
692.81	920.00
693.06	928.00
693.32	916.00
693.57	906.00
693.82	933.00
694.07	936.00
694.33	941.00
694.58	899.00
694.83	930.00
695.09	926.00
695.34	951.00
695.59	922.00
695.84	924.00
696.10	946.00
696.35	951.00
696.60	901.00
696.86	911.00
697.11	936.00
697.36	931.00
697.61	905.00
697.87	930.00
698.12	936.00
698.37	930.00
698.63	915.00
698.88	921.00
699.13	951.00
699.38	941.00
699.64	903.00
699.89	925.00
700.14	919.00
700.39	927.00
700.65	915.00
700.90	946.00
701.15	940.00
701.40	945.00
701.66	915.00
701.91	941.00
702.16	935.00
702.42	933.00
702.67	882.00
702.92	890.00
703.17	913.00
703.43	940.00
703.68	916.00
703.93	953.00
704.18	999.00
704.44	944.00
704.69	928.00
704.94	939.00
705.19	924.00
705.45	939.00
705.70	921.00
705.95	926.00
706.20	917.00
706.46	949.00
706.71	920.00
706.96	920.00
707.21	940.00
707.47	949.00
707.72	936.00
707.97	936.00
708.22	964.00
708.48	969.00
708.73	913.00
708.98	918.00
709.23	921.00
709.49	928.00
709.74	897.00
709.99	913.00
710.24	932.00
710.50	926.00
710.75	920.00
711.00	948.00
711.25	936.00
711.50	929.00
711.76	914.00
712.01	913.00
712.26	911.00
712.51	939.00
712.77	904.00
713.02	923.00
713.27	905.00
713.52	925.00
713.78	918.00
714.03	921.00
714.28	922.00
714.53	943.00
714.78	930.00
715.04	953.00
715.29	955.00
715.54	932.00
715.79	894.00
716.05	923.00
716.30	949.00
716.55	962.00
716.80	917.00
717.05	926.00
717.31	936.00
717.56	947.00
717.81	906.00
718.06	908.00
718.31	908.00
718.57	929.00
718.82	918.00
719.07	946.00
719.32	930.00
719.57	952.00
719.83	915.00
720.08	925.00
720.33	930.00
720.58	915.00
720.83	886.00
721.09	946.00
721.34	924.00
721.59	938.00
721.84	903.00
722.09	900.00
722.35	931.00
722.60	924.00
722.85	904.00
723.10	937.00
723.35	906.00
723.61	938.00
723.86	934.00
724.11	931.00
724.36	914.00
724.61	907.00
724.87	914.00
725.12	904.00
725.37	900.00
725.62	895.00
725.87	899.00
726.12	923.00
726.38	918.00
726.63	931.00
726.88	919.00
727.13	937.00
727.38	926.00
727.64	953.00
727.89	902.00
728.14	916.00
728.39	919.00
728.64	939.00
728.89	912.00
729.15	931.00
729.40	935.00
729.65	949.00
729.90	889.00
730.15	922.00
730.40	937.00
730.66	929.00
730.91	913.00
731.16	928.00
731.41	941.00
731.66	949.00
731.91	913.00
732.17	942.00
732.42	952.00
732.67	928.00
732.92	913.00
733.17	933.00
733.42	931.00
733.68	922.00
733.93	897.00
734.18	927.00
734.43	918.00
734.68	925.00
734.93	910.00
735.18	940.00
735.44	951.00
735.69	957.00
735.94	895.00
736.19	905.00
736.44	910.00
736.69	968.00
736.95	906.00
737.20	933.00
737.45	937.00
737.70	944.00
737.95	930.00
738.20	933.00
738.45	947.00
738.70	955.00
738.96	917.00
739.21	930.00
739.46	938.00
739.71	951.00
739.96	918.00
740.21	949.00
740.46	1000.00
740.72	985.00
740.97	921.00
741.22	962.00
741.47	916.00
741.72	938.00
741.97	891.00
742.22	918.00
742.47	945.00
742.73	953.00
742.98	904.00
743.23	909.00
743.48	923.00
743.73	947.00
743.98	912.00
744.23	924.00
744.48	957.00
744.74	929.00
744.99	909.00
745.24	942.00
745.49	924.00
745.74	944.00
745.99	894.00
746.24	912.00
746.49	926.00
746.74	917.00
747.00	923.00
747.25	927.00
747.50	899.00
747.75	903.00
748.00	852.00
748.25	910.00
748.50	912.00
748.75	959.00
749.00	948.00
749.26	972.00
749.51	942.00
749.76	944.00
750.01	904.00
750.26	932.00
750.51	966.00
750.76	934.00
751.01	926.00
751.26	926.00
751.51	931.00
751.77	936.00
752.02	916.00
752.27	917.00
752.52	926.00
752.77	943.00
753.02	913.00
753.27	919.00
753.52	912.00
753.77	908.00
754.02	899.00
754.27	924.00
754.52	907.00
754.78	929.00
755.03	909.00
755.28	921.00
755.53	929.00
755.78	914.00
756.03	899.00
756.28	928.00
756.53	932.00
756.78	929.00
757.03	905.00
757.28	935.00
757.53	927.00
757.79	889.00
758.04	870.00
758.29	947.00
758.54	962.00
758.79	970.00
759.04	894.00
759.29	907.00
759.54	910.00
759.79	916.00
760.04	905.00
760.29	914.00
760.54	913.00
760.79	930.00
761.04	901.00
761.29	907.00
761.55	901.00
761.80	920.00
762.05	899.00
762.30	932.00
762.55	932.00
762.80	949.00
763.05	952.00
763.30	946.00
763.55	956.00
763.80	937.00
764.05	894.00
764.30	923.00
764.55	952.00
764.80	951.00
765.05	907.00
765.30	936.00
765.55	933.00
765.80	924.00
766.05	892.00
766.30	925.00
766.56	924.00
766.81	941.00
767.06	906.00
767.31	914.00
767.56	907.00
767.81	938.00
768.06	905.00
768.31	922.00
768.56	928.00
768.81	968.00
769.06	907.00
769.31	926.00
769.56	929.00
769.81	943.00
770.06	901.00
770.31	919.00
770.56	956.00
770.81	927.00
771.06	887.00
771.31	916.00
771.56	943.00
771.81	961.00
772.06	884.00
772.31	933.00
772.56	945.00
772.81	967.00
773.06	911.00
773.31	937.00
773.56	925.00
773.81	914.00
774.06	884.00
774.31	917.00
774.56	922.00
774.81	951.00
775.06	926.00
775.31	936.00
775.56	937.00
775.81	910.00
776.06	884.00
776.31	920.00
776.56	927.00
776.82	935.00
777.07	884.00
777.32	907.00
777.57	918.00
777.82	969.00
778.07	921.00
778.32	909.00
778.57	925.00
778.82	943.00
779.07	919.00
779.32	921.00
779.57	900.00
779.82	927.00
780.07	914.00
780.32	933.00
780.56	924.00
780.81	978.00
781.06	908.00
781.31	904.00
781.56	952.00
781.81	951.00
782.06	914.00
782.31	942.00
782.56	939.00
782.81	967.00
783.06	907.00
783.31	914.00
783.56	912.00
783.81	958.00
784.06	923.00
784.31	922.00
784.56	904.00
784.81	957.00
785.06	921.00
785.31	922.00
785.56	883.00
785.81	905.00
786.06	891.00
786.31	921.00
786.56	911.00
786.81	915.00
787.06	911.00
787.31	919.00
787.56	894.00
787.81	911.00
788.06	896.00
788.31	930.00
788.56	906.00
788.81	954.00
789.06	920.00
789.31	916.00
789.56	908.00
789.81	926.00
790.06	890.00
790.31	939.00
790.56	913.00
790.80	908.00
791.05	882.00
791.30	883.00
791.55	891.00
791.80	908.00
792.05	918.00
792.30	932.00
792.55	928.00
792.80	931.00
793.05	898.00
793.30	899.00
793.55	916.00
793.80	940.00
794.05	907.00
794.30	932.00
794.55	929.00
794.80	937.00
795.05	908.00
795.30	914.00
795.54	886.00
795.79	940.00
796.04	894.00
796.29	923.00
796.54	926.00
796.79	948.00
797.04	906.00
797.29	938.00
797.54	961.00
797.79	932.00
798.04	893.00
798.29	905.00
798.54	903.00
798.79	907.00
799.04	871.00
799.29	917.00
799.53	931.00
799.78	922.00
800.03	898.00
800.28	899.00
800.53	906.00
800.78	957.00
801.03	894.00
801.28	909.00
801.53	919.00
801.78	947.00
802.03	906.00
802.28	929.00
802.52	941.00
802.77	941.00
803.02	933.00
803.27	930.00
803.52	914.00
803.77	936.00
804.02	942.00
804.27	947.00
804.52	938.00
804.77	944.00
805.02	905.00
805.27	941.00
805.51	926.00
805.76	949.00
806.01	904.00
806.26	924.00
806.51	919.00
806.76	956.00
807.01	916.00
807.26	894.00
807.51	932.00
807.76	928.00
808.00	896.00
808.25	902.00
808.50	928.00
808.75	901.00
809.00	880.00
809.25	914.00
809.50	922.00
809.75	956.00
810.00	916.00
810.24	905.00
810.49	870.00
810.74	911.00
810.99	907.00
811.24	923.00
811.49	938.00
811.74	938.00
811.99	871.00
812.24	918.00
812.48	913.00
812.73	912.00
812.98	873.00
813.23	886.00
813.48	901.00
813.73	916.00
813.98	858.00
814.23	905.00
814.47	910.00
814.72	907.00
814.97	886.00
815.22	927.00
815.47	907.00
815.72	922.00
815.97	889.00
816.22	913.00
816.46	924.00
816.71	953.00
816.96	912.00
817.21	930.00
817.46	911.00
817.71	933.00
817.96	910.00
818.20	904.00
818.45	908.00
818.70	930.00
818.95	889.00
819.20	909.00
819.45	925.00
819.70	933.00
819.94	900.00
820.19	933.00
820.44	915.00
820.69	937.00
820.94	905.00
821.19	928.00
821.44	982.00
821.68	997.00
821.93	930.00
822.18	945.00
822.43	936.00
822.68	938.00
822.93	906.00
823.17	950.00
823.42	950.00
823.67	915.00
823.92	892.00
824.17	916.00
824.42	914.00
824.67	933.00
824.91	918.00
825.16	929.00
825.41	929.00
825.66	920.00
825.91	891.00
826.16	905.00
826.40	928.00
826.65	943.00
826.90	885.00
827.15	907.00
827.40	924.00
827.65	948.00
827.89	877.00
828.14	906.00
828.39	921.00
828.64	933.00
828.89	888.00
829.13	906.00
829.38	893.00
829.63	919.00
829.88	906.00
830.13	900.00
830.38	890.00
830.62	916.00
830.87	897.00
831.12	924.00
831.37	949.00
831.62	962.00
831.86	907.00
832.11	922.00
832.36	907.00
832.61	941.00
832.86	908.00
833.10	914.00
833.35	918.00
833.60	935.00
833.85	896.00
834.10	926.00
834.35	958.00
834.59	948.00
834.84	890.00
835.09	930.00
835.34	898.00
835.59	914.00
835.83	898.00
836.08	923.00
836.33	941.00
836.58	937.00
836.83	910.00
837.07	923.00
837.32	935.00
837.57	923.00
837.82	904.00
838.06	922.00
838.31	947.00
838.56	940.00
838.81	881.00
839.06	897.00
839.30	908.00
839.55	941.00
839.80	901.00
840.05	923.00
840.30	945.00
840.54	973.00
840.79	909.00
841.04	932.00
841.29	923.00
841.53	943.00
841.78	912.00
842.03	906.00
842.28	894.00
842.53	918.00
842.77	911.00
843.02	937.00
843.27	918.00
843.52	927.00
843.76	925.00
844.01	942.00
844.26	920.00
844.51	929.00
844.75	911.00
845.00	914.00
845.25	935.00
845.50	941.00
845.75	906.00
845.99	936.00
846.24	919.00
846.49	940.00
846.74	893.00
846.98	899.00
847.23	908.00
847.48	921.00
847.73	869.00
847.97	905.00
848.22	956.00
848.47	953.00
848.72	907.00
848.96	903.00
849.21	933.00
849.46	905.00
849.71	908.00
849.95	926.00
850.20	906.00
850.45	932.00
850.70	894.00
850.94	932.00
851.19	920.00
851.44	915.00
851.69	870.00
851.93	910.00
852.18	948.00
852.43	940.00
852.68	909.00
852.92	948.00
853.17	965.00
853.42	959.00
853.66	921.00
853.91	946.00
854.16	916.00
854.41	964.00
854.65	902.00
854.90	918.00
855.15	926.00
855.40	944.00
855.64	918.00
855.89	915.00
856.14	912.00
856.39	894.00
856.63	899.00
856.88	895.00
857.13	917.00
857.37	919.00
857.62	871.00
857.87	871.00
858.12	898.00
858.36	944.00
858.61	866.00
858.86	916.00
859.10	940.00
859.35	947.00
859.60	900.00
859.85	884.00
860.09	899.00
860.34	940.00
860.59	925.00
860.83	930.00
861.08	908.00
861.33	942.00
861.58	909.00
861.82	917.00
862.07	919.00
862.32	930.00
862.56	909.00
862.81	906.00
863.06	934.00
863.30	921.00
863.55	899.00
863.80	917.00
864.05	920.00
864.29	919.00
864.54	915.00
864.79	919.00
865.03	910.00
865.28	961.00
865.53	909.00
865.77	888.00
866.02	920.00
866.27	943.00
866.51	918.00
866.76	896.00
867.01	896.00
867.26	932.00
867.50	894.00
867.75	900.00
868.00	912.00
868.24	941.00
868.49	919.00
868.74	904.00
868.98	901.00
869.23	933.00
869.48	915.00
869.72	913.00
869.97	919.00
870.22	947.00
870.46	916.00
870.71	921.00
870.96	928.00
871.20	932.00
871.45	883.00
871.70	907.00
871.94	953.00
872.19	945.00
872.44	919.00
872.68	914.00
872.93	908.00
873.18	939.00
873.42	890.00
873.67	920.00
873.92	939.00
874.16	923.00
874.41	916.00
874.66	940.00
874.90	933.00
875.15	968.00
875.40	938.00
875.64	921.00
875.89	909.00
876.14	919.00
876.38	899.00
876.63	901.00
876.88	921.00
877.12	931.00
877.37	899.00
877.62	926.00
877.86	918.00
878.11	937.00
878.36	889.00
878.60	917.00
878.85	915.00
879.09	927.00
879.34	910.00
879.59	926.00
879.83	960.00
880.08	973.00
880.33	929.00
880.57	919.00
880.82	944.00
881.07	942.00
881.31	896.00
881.56	911.00
881.80	901.00
882.05	917.00
882.30	875.00
882.54	915.00
882.79	961.00
883.04	965.00
883.28	947.00
883.53	911.00
883.77	923.00
884.02	941.00
884.27	895.00
884.51	910.00
884.76	916.00
885.01	934.00
885.25	891.00
885.50	912.00
885.74	917.00
885.99	947.00
886.24	903.00
886.48	912.00
886.73	940.00
886.98	952.00
887.22	916.00
887.47	934.00
887.71	926.00
887.96	937.00
888.21	911.00
888.45	906.00
888.70	908.00
888.94	939.00
889.19	888.00
889.44	918.00
889.68	924.00
889.93	948.00
890.17	916.00
890.42	907.00
890.67	944.00
890.91	1008.00
891.16	904.00
891.40	900.00
891.65	903.00
891.90	933.00
892.14	882.00
892.39	918.00
892.63	924.00
892.88	972.00
893.13	910.00
893.37	892.00
893.62	904.00
893.86	946.00
894.11	909.00
894.36	914.00
894.60	902.00
894.85	919.00
895.09	897.00
895.34	950.00
895.59	933.00
895.83	922.00
896.08	897.00
896.32	896.00
896.57	920.00
896.81	932.00
897.06	894.00
897.31	900.00
897.55	929.00
897.80	905.00
898.04	873.00
898.29	883.00
898.53	916.00
898.78	954.00
899.03	920.00
899.27	906.00
899.52	918.00
899.76	924.00
900.01	888.00
900.25	921.00
900.50	939.00
900.75	940.00
900.99	926.00
901.24	981.00
901.48	934.00
901.73	935.00
901.97	903.00
902.22	929.00
902.47	956.00
902.71	927.00
902.96	892.00
903.20	923.00
903.45	962.00
903.69	919.00
903.94	912.00
904.18	884.00
904.43	911.00
904.68	925.00
904.92	886.00
905.17	919.00
905.41	938.00
905.66	948.00
905.90	928.00
906.15	917.00
906.39	926.00
906.64	929.00
906.88	878.00
907.13	896.00
907.38	941.00
907.62	964.00
907.87	900.00
908.11	934.00
908.36	905.00
908.60	922.00
908.85	880.00
909.09	916.00
909.34	906.00
909.58	921.00
909.83	887.00
910.07	900.00
910.32	961.00
910.56	965.00
910.81	916.00
911.06	953.00
911.30	950.00
911.55	940.00
911.79	897.00
912.04	906.00
912.28	909.00
912.53	944.00
912.77	928.00
913.02	925.00
913.26	924.00
913.51	930.00
913.75	918.00
914.00	908.00
914.24	936.00
914.49	933.00
914.73	896.00
914.98	940.00
915.22	970.00
915.47	934.00
915.71	900.00
915.96	911.00
916.20	920.00
916.45	900.00
916.69	882.00
916.94	900.00
917.18	915.00
917.43	930.00
917.67	904.00
917.92	890.00
918.16	932.00
918.41	933.00
918.65	889.00
918.90	890.00
919.14	888.00
919.39	921.00
919.63	900.00
919.88	898.00
920.12	938.00
920.37	934.00
920.61	880.00
920.86	922.00
921.10	937.00
921.35	909.00
921.59	891.00
921.84	916.00
922.08	952.00
922.33	961.00
922.57	885.00
922.82	893.00
923.06	921.00
923.31	924.00
923.55	865.00
923.80	893.00
924.04	898.00
924.29	926.00
924.53	887.00
924.78	905.00
925.02	924.00
925.27	931.00
925.51	912.00
925.76	926.00
926.00	919.00
926.25	925.00
926.49	894.00
926.73	926.00
926.98	937.00
927.22	947.00
927.47	926.00
927.71	918.00
927.96	935.00
928.20	916.00
928.45	919.00
928.69	956.00
928.94	962.00
929.18	932.00
929.43	917.00
929.67	918.00
929.91	941.00
930.16	939.00
930.40	886.00
930.65	886.00
930.89	923.00
931.14	955.00
931.38	914.00
931.63	946.00
931.87	941.00
932.12	931.00
932.36	897.00
932.60	909.00
932.85	936.00
933.09	910.00
933.34	883.00
933.58	915.00
933.83	913.00
934.07	944.00
934.32	921.00
934.56	935.00
934.80	955.00
935.05	972.00
935.29	915.00
935.54	928.00
935.78	944.00
936.03	952.00
936.27	903.00
936.52	900.00
936.76	914.00
937.00	938.00
937.25	914.00
937.49	928.00
937.74	941.00
937.98	944.00
938.23	889.00
938.47	890.00
938.71	903.00
938.96	914.00
939.20	890.00
939.45	893.00
939.69	928.00
939.94	929.00
940.18	889.00
940.42	905.00
940.67	923.00
940.91	917.00
941.16	899.00
941.40	897.00
941.64	917.00
941.89	937.00
942.13	903.00
942.38	925.00
942.62	1014.00
942.87	973.00
943.11	927.00
943.35	905.00
943.60	932.00
943.84	971.00
944.09	920.00
944.33	930.00
944.57	954.00
944.82	936.00
945.06	903.00
945.31	922.00
945.55	898.00
945.79	943.00
946.04	907.00
946.28	901.00
946.53	903.00
946.77	924.00
947.01	892.00
947.26	933.00
947.50	927.00
947.75	952.00
947.99	928.00
948.23	937.00
948.48	930.00
948.72	927.00
948.97	907.00
949.21	922.00
949.45	932.00
949.70	954.00
949.94	919.00
950.18	925.00
950.43	921.00
950.67	923.00
950.92	914.00
951.16	917.00
951.40	918.00
951.65	923.00
951.89	900.00
952.13	905.00
952.38	929.00
952.62	925.00
952.87	899.00
953.11	915.00
953.35	953.00
953.60	946.00
953.84	861.00
954.08	888.00
954.33	911.00
954.57	928.00
954.82	917.00
955.06	891.00
955.30	897.00
955.55	915.00
955.79	900.00
956.03	918.00
956.28	915.00
956.52	923.00
956.76	902.00
957.01	932.00
957.25	918.00
957.50	918.00
957.74	897.00
957.98	905.00
958.23	931.00
958.47	955.00
958.71	919.00
958.96	930.00
959.20	955.00
959.44	939.00
959.69	906.00
959.93	925.00
960.17	938.00
960.42	952.00
960.66	915.00
960.90	928.00
961.15	927.00
961.39	951.00
961.64	884.00
961.88	889.00
962.12	933.00
962.37	937.00
962.61	906.00
962.85	897.00
963.10	907.00
963.34	927.00
963.58	904.00
963.83	922.00
964.07	926.00
964.31	946.00
964.56	922.00
964.80	905.00
965.04	927.00
965.29	932.00
965.53	902.00
965.77	906.00
966.02	892.00
966.26	910.00
966.50	874.00
966.74	934.00
966.99	962.00
967.23	940.00
967.47	921.00
967.72	924.00
967.96	924.00
968.20	925.00
968.45	893.00
968.69	908.00
968.93	909.00
969.18	928.00
969.42	923.00
969.66	923.00
969.91	916.00
970.15	942.00
970.39	908.00
970.64	913.00
970.88	929.00
971.12	928.00
971.36	922.00
971.61	917.00
971.85	921.00
972.09	909.00
972.34	885.00
972.58	920.00
972.82	933.00
973.07	937.00
973.31	875.00
973.55	917.00
973.79	948.00
974.04	976.00
974.28	930.00
974.52	924.00
974.77	900.00
975.01	930.00
975.25	920.00
975.50	924.00
975.74	943.00
975.98	947.00
976.22	912.00
976.47	903.00
976.71	920.00
976.95	947.00
977.20	940.00
977.44	928.00
977.68	927.00
977.92	938.00
978.17	915.00
978.41	918.00
978.65	925.00
978.90	916.00
979.14	905.00
979.38	918.00
979.62	906.00
979.87	903.00
980.11	872.00
980.35	905.00
980.59	921.00
980.84	924.00
981.08	913.00
981.32	906.00
981.57	933.00
981.81	942.00
982.05	924.00
982.29	898.00
982.54	904.00
982.78	919.00
983.02	905.00
983.26	907.00
983.51	970.00
983.75	958.00
983.99	892.00
984.23	917.00
984.48	932.00
984.72	953.00
984.96	880.00
985.20	914.00
985.45	965.00
985.69	935.00
985.93	918.00
986.17	937.00
986.42	931.00
986.66	920.00
986.90	866.00
987.14	900.00
987.39	929.00
987.63	913.00
987.87	888.00
988.11	899.00
988.36	936.00
988.60	940.00
988.84	916.00
989.08	893.00
989.33	945.00
989.57	937.00
989.81	868.00
990.05	901.00
990.30	923.00
990.54	906.00
990.78	907.00
991.02	900.00
991.27	936.00
991.51	946.00
991.75	882.00
991.99	922.00
992.23	909.00
992.48	898.00
992.72	870.00
992.96	908.00
993.20	922.00
993.45	929.00
993.69	936.00
993.93	886.00
994.17	925.00
994.41	929.00
994.66	874.00
994.90	900.00
995.14	947.00
995.38	938.00
995.63	897.00
995.87	900.00
996.11	955.00
996.35	937.00
996.59	873.00
996.84	890.00
997.08	923.00
997.32	920.00
997.56	906.00
997.80	877.00
998.05	883.00
998.29	895.00
998.53	886.00
998.77	910.00
999.01	933.00
999.26	920.00
999.50	894.00
999.74	895.00
999.98	917.00
1000.22	927.00
1000.47	876.00
1000.71	891.00
1000.95	937.00
1001.19	937.00
1001.43	911.00
1001.68	909.00
1001.92	926.00
1002.16	905.00
1002.40	859.00
1002.64	897.00
1002.89	926.00
1003.13	931.00
1003.37	904.00
1003.61	892.00
1003.85	904.00
1004.10	899.00
1004.34	884.00
1004.58	893.00
1004.82	934.00
1005.06	937.00
1005.30	899.00
1005.55	903.00
1005.79	927.00
1006.03	920.00
1006.27	899.00
1006.51	904.00
1006.76	899.00
1007.00	933.00
1007.24	905.00
1007.48	916.00
1007.72	941.00
1007.96	940.00
1008.21	905.00
1008.45	930.00
1008.69	939.00
1008.93	960.00
1009.17	916.00
1009.41	932.00
1009.66	944.00
1009.90	922.00
1010.14	877.00
1010.38	917.00
1010.62	934.00
1010.86	954.00
1011.10	911.00
1011.35	903.00
1011.59	907.00
1011.83	897.00
1012.07	877.00
1012.31	912.00
1012.55	921.00
1012.80	937.00
1013.04	933.00
1013.28	915.00
1013.52	914.00
1013.76	936.00
1014.00	896.00
1014.24	909.00
1014.49	942.00
1014.73	968.00
1014.97	956.00
1015.21	925.00
1015.45	934.00
1015.69	923.00
1015.93	908.00
1016.18	904.00
1016.42	943.00
1016.66	957.00
1016.90	892.00
1017.14	878.00
1017.38	910.00
1017.62	923.00
1017.87	898.00
1018.11	889.00
1018.35	914.00
1018.59	932.00
1018.83	882.00
1019.07	919.00
1019.31	948.00
1019.55	960.00
1019.80	890.00
1020.04	907.00
1020.28	924.00
1020.52	928.00
1020.76	896.00
1021.00	889.00
1021.24	917.00
1021.48	912.00
1021.73	924.00
1021.97	918.00
1022.21	912.00
1022.45	932.00
1022.69	914.00
1022.93	907.00
1023.17	935.00
1023.41	952.00
1023.65	916.00
1023.90	940.00
1024.14	936.00
1024.38	908.00
1024.62	873.00
1024.86	908.00
1025.10	919.00
1025.34	910.00
1025.58	878.00
1025.82	907.00
1026.07	952.00
1026.31	938.00
1026.55	902.00
1026.79	886.00
1027.03	913.00
1027.27	940.00
1027.51	865.00
1027.75	863.00
1027.99	900.00
1028.23	939.00
1028.47	912.00
1028.72	913.00
1028.96	931.00
1029.20	932.00
1029.44	914.00
1029.68	919.00
1029.92	915.00
1030.16	927.00
1030.40	870.00
1030.64	890.00
1030.88	903.00
1031.12	892.00
1031.37	873.00
1031.61	912.00
1031.85	944.00
1032.09	946.00
1032.33	900.00
1032.57	951.00
1032.81	908.00
1033.05	943.00
1033.29	900.00
1033.53	906.00
1033.77	976.00
1034.01	988.00
1034.25	920.00
1034.50	905.00
1034.74	923.00
1034.98	944.00
1035.22	901.00
1035.46	912.00
1035.70	964.00
1035.94	952.00
1036.18	915.00
1036.42	917.00
1036.66	898.00
1036.90	915.00
1037.14	881.00
1037.38	898.00
1037.62	926.00
1037.86	904.00
1038.10	899.00
1038.35	905.00
1038.59	942.00
1038.83	938.00
1039.07	940.00
1039.31	938.00
1039.55	887.00
1039.79	918.00
1040.03	897.00
1040.27	899.00
1040.51	920.00
1040.75	928.00
1040.99	901.00
1041.23	919.00
1041.47	910.00
1041.71	941.00
1041.95	901.00
1042.19	905.00
1042.43	961.00
1042.67	947.00
1042.91	909.00
1043.15	900.00
1043.39	961.00
1043.64	929.00
1043.88	901.00
1044.12	925.00
1044.36	961.00
1044.60	954.00
1044.84	912.00
1045.08	920.00
1045.32	938.00
1045.56	946.00
1045.80	902.00
1046.04	899.00
1046.28	953.00
1046.52	963.00
1046.76	873.00
1047.00	902.00
1047.24	947.00
1047.48	922.00
1047.72	905.00
1047.96	907.00
1048.20	921.00
1048.44	932.00
1048.68	896.00
1048.92	913.00
1049.16	937.00
1049.40	934.00
1049.64	910.00
1049.88	904.00
1050.12	954.00
1050.36	963.00
1050.60	920.00
1050.84	912.00
1051.08	910.00
1051.32	900.00
1051.56	897.00
1051.80	888.00
1052.04	921.00
1052.28	961.00
1052.52	905.00
1052.76	886.00
1053.00	911.00
1053.24	926.00
1053.48	896.00
1053.72	903.00
1053.96	926.00
1054.20	942.00
1054.44	907.00
1054.68	913.00
1054.92	938.00
1055.16	898.00
1055.40	900.00
1055.64	910.00
1055.88	946.00
1056.12	959.00
1056.36	878.00
1056.60	889.00
1056.84	939.00
1057.08	923.00
1057.32	887.00
1057.56	900.00
1057.80	920.00
1058.04	935.00
1058.28	882.00
1058.52	895.00
1058.76	946.00
1059.00	959.00
1059.24	882.00
1059.48	894.00
1059.72	940.00
1059.96	926.00
1060.20	930.00
1060.44	932.00
1060.68	944.00
1060.92	922.00
1061.16	876.00
1061.40	898.00
1061.64	929.00
1061.88	922.00
1062.11	909.00
1062.35	899.00
1062.59	904.00
1062.83	939.00
1063.07	898.00
1063.31	892.00
1063.55	920.00
1063.79	947.00
1064.03	922.00
1064.27	890.00
1064.51	910.00
1064.75	926.00
1064.99	909.00
1065.23	930.00
1065.47	915.00
1065.71	938.00
1065.95	916.00
1066.19	916.00
1066.43	954.00
1066.67	937.00
1066.91	915.00
1067.15	904.00
1067.38	919.00
1067.62	931.00
1067.86	884.00
1068.10	923.00
1068.34	957.00
1068.58	958.00
1068.82	899.00
1069.06	865.00
1069.30	927.00
1069.54	954.00
1069.78	923.00
1070.02	893.00
1070.26	941.00
1070.50	955.00
1070.74	912.00
1070.98	930.00
1071.21	938.00
1071.45	934.00
1071.69	878.00
1071.93	912.00
1072.17	945.00
1072.41	943.00
1072.65	925.00
1072.89	939.00
1073.13	938.00
1073.37	926.00
1073.61	885.00
1073.85	922.00
1074.09	909.00
1074.32	914.00
1074.56	921.00
1074.80	1008.00
1075.04	1219.00
1075.28	1041.00
1075.52	914.00
1075.76	919.00
1076.00	942.00
1076.24	932.00
1076.48	912.00
1076.72	921.00
1076.96	942.00
1077.19	941.00
1077.43	893.00
1077.67	921.00
1077.91	941.00
1078.15	911.00
1078.39	906.00
1078.63	898.00
1078.87	915.00
1079.11	931.00
1079.35	901.00
1079.58	894.00
1079.82	907.00
1080.06	910.00
1080.30	884.00
1080.54	925.00
1080.78	955.00
1081.02	928.00
1081.26	916.00
1081.50	925.00
1081.74	929.00
1081.97	947.00
1082.21	903.00
1082.45	921.00
1082.69	909.00
1082.93	907.00
1083.17	910.00
1083.41	903.00
1083.65	944.00
1083.88	971.00
1084.12	922.00
1084.36	928.00
1084.60	927.00
1084.84	937.00
1085.08	897.00
1085.32	906.00
1085.56	949.00
1085.80	950.00
1086.03	900.00
1086.27	896.00
1086.51	921.00
1086.75	922.00
1086.99	885.00
1087.23	876.00
1087.47	910.00
1087.70	902.00
1087.94	884.00
1088.18	942.00
1088.42	985.00
1088.66	929.00
1088.90	873.00
1089.14	909.00
1089.38	925.00
1089.61	952.00
1089.85	919.00
1090.09	891.00
1090.33	942.00
1090.57	949.00
1090.81	876.00
1091.05	901.00
1091.28	937.00
1091.52	957.00
1091.76	904.00
1092.00	914.00
1092.24	954.00
1092.48	968.00
1092.71	895.00
1092.95	922.00
1093.19	941.00
1093.43	909.00
1093.67	884.00
1093.91	916.00
1094.15	941.00
1094.38	958.00
1094.62	912.00
1094.86	896.00
1095.10	914.00
1095.34	929.00
1095.58	889.00
1095.81	911.00
1096.05	948.00
1096.29	954.00
1096.53	882.00
1096.77	906.00
1097.01	916.00
1097.24	952.00
1097.48	901.00
1097.72	914.00
1097.96	917.00
1098.20	931.00
1098.44	879.00
1098.67	875.00
1098.91	942.00
1099.15	935.00
1099.39	870.00
1099.63	910.00
1099.86	942.00
1100.10	920.00
1100.34	897.00
1100.58	903.00
1100.82	948.00
1101.06	926.00
1101.29	874.00
1101.53	896.00
1101.77	924.00
1102.01	910.00
1102.25	896.00
1102.48	923.00
1102.72	965.00
1102.96	943.00
1103.20	870.00
1103.44	898.00
1103.67	906.00
1103.91	933.00
1104.15	888.00
1104.39	898.00
1104.63	932.00
1104.86	900.00
1105.10	891.00
1105.34	923.00
1105.58	919.00
1105.82	909.00
1106.05	912.00
1106.29	924.00
1106.53	929.00
1106.77	952.00
1107.01	887.00
1107.24	933.00
1107.48	970.00
1107.72	932.00
1107.96	863.00
1108.20	900.00
1108.43	924.00
1108.67	917.00
1108.91	903.00
1109.15	900.00
1109.39	917.00
1109.62	932.00
1109.86	892.00
1110.10	902.00
1110.34	972.00
1110.57	996.00
1110.81	925.00
1111.05	938.00
1111.29	962.00
1111.53	962.00
1111.76	917.00
1112.00	953.00
1112.24	942.00
1112.48	934.00
1112.71	885.00
1112.95	898.00
1113.19	934.00
1113.43	921.00
1113.66	893.00
1113.90	921.00
1114.14	935.00
1114.38	930.00
1114.62	915.00
1114.85	937.00
1115.09	930.00
1115.33	966.00
1115.57	906.00
1115.80	906.00
1116.04	919.00
1116.28	918.00
1116.52	903.00
1116.75	919.00
1116.99	956.00
1117.23	958.00
1117.47	917.00
1117.70	937.00
1117.94	982.00
1118.18	929.00
1118.42	901.00
1118.65	924.00
1118.89	940.00
1119.13	934.00
1119.37	892.00
1119.60	933.00
1119.84	954.00
>>>>>End Processed Spectral Data<<<<<
