SpectraSuite Data File
++++++++++++++++++++++++++++++++++++
Date: Fri Nov 29 15:09:20 CET 2024
User: student
Dark Spectrum Present: No
Reference Spectrum Present: No
Number of Sampled Component Spectra: 1
Spectrometers: HR4C155
Integration Time (usec): 100000 (HR4C155)
Spectra Averaged: 1 (HR4C155)
Boxcar Smoothing: 0 (HR4C155)
Correct for Electrical Dark: No (HR4C155)
Strobe/Lamp Enabled: No (HR4C155)
Correct for Detector Non-linearity: No (HR4C155)
Correct for Stray Light: No (HR4C155)
Number of Pixels in Processed Spectrum: 3648
>>>>>Begin Processed Spectral Data<<<<<
195.39	774.00
195.66	774.00
195.93	774.00
196.20	712.00
196.46	748.00
196.73	864.00
197.00	883.00
197.27	882.00
197.54	902.00
197.81	910.00
198.08	893.00
198.35	932.00
198.61	957.00
198.88	918.00
199.15	910.00
199.42	935.00
199.69	932.00
199.96	901.00
200.23	945.00
200.49	932.00
200.76	940.00
201.03	942.00
201.30	922.00
201.57	966.00
201.84	984.00
202.11	931.00
202.38	955.00
202.64	957.00
202.91	974.00
203.18	903.00
203.45	977.00
203.72	1054.00
203.99	972.00
204.25	968.00
204.52	961.00
204.79	980.00
205.06	994.00
205.33	922.00
205.60	938.00
205.87	982.00
206.13	981.00
206.40	936.00
206.67	935.00
206.94	966.00
207.21	973.00
207.48	958.00
207.75	954.00
208.01	1005.00
208.28	987.00
208.55	936.00
208.82	955.00
209.09	958.00
209.36	989.00
209.62	964.00
209.89	974.00
210.16	986.00
210.43	1014.00
210.70	937.00
210.97	948.00
211.23	977.00
211.50	998.00
211.77	943.00
212.04	948.00
212.31	952.00
212.58	999.00
212.84	947.00
213.11	946.00
213.38	919.00
213.65	977.00
213.92	946.00
214.18	946.00
214.45	1002.00
214.72	999.00
214.99	920.00
215.26	964.00
215.53	954.00
215.79	966.00
216.06	965.00
216.33	966.00
216.60	940.00
216.87	976.00
217.13	909.00
217.40	924.00
217.67	964.00
217.94	984.00
218.21	923.00
218.48	960.00
218.74	1027.00
219.01	984.00
219.28	923.00
219.55	933.00
219.82	965.00
220.08	1007.00
220.35	954.00
220.62	959.00
220.89	1013.00
221.16	1023.00
221.42	953.00
221.69	973.00
221.96	984.00
222.23	990.00
222.50	983.00
222.76	972.00
223.03	942.00
223.30	949.00
223.57	921.00
223.84	925.00
224.10	940.00
224.37	974.00
224.64	924.00
224.91	937.00
225.18	992.00
225.44	994.00
225.71	939.00
225.98	956.00
226.25	990.00
226.51	1010.00
226.78	954.00
227.05	934.00
227.32	975.00
227.59	994.00
227.85	973.00
228.12	964.00
228.39	1007.00
228.66	1003.00
228.92	1003.00
229.19	980.00
229.46	989.00
229.73	963.00
230.00	942.00
230.26	977.00
230.53	1006.00
230.80	979.00
231.07	913.00
231.33	908.00
231.60	971.00
231.87	993.00
232.14	966.00
232.41	1002.00
232.67	985.00
232.94	996.00
233.21	941.00
233.48	954.00
233.74	968.00
234.01	962.00
234.28	927.00
234.55	945.00
234.81	953.00
235.08	998.00
235.35	939.00
235.62	938.00
235.88	960.00
236.15	986.00
236.42	957.00
236.69	957.00
236.95	994.00
237.22	973.00
237.49	957.00
237.76	945.00
238.02	982.00
238.29	1005.00
238.56	945.00
238.83	944.00
239.09	941.00
239.36	982.00
239.63	951.00
239.90	970.00
240.16	1004.00
240.43	1042.00
240.70	953.00
240.97	948.00
241.23	954.00
241.50	976.00
241.77	949.00
242.04	952.00
242.30	936.00
242.57	946.00
242.84	927.00
243.11	933.00
243.37	930.00
243.64	994.00
243.91	956.00
244.18	949.00
244.44	942.00
244.71	969.00
244.98	935.00
245.24	933.00
245.51	957.00
245.78	997.00
246.05	940.00
246.31	942.00
246.58	974.00
246.85	955.00
247.12	954.00
247.38	992.00
247.65	971.00
247.92	992.00
248.18	956.00
248.45	956.00
248.72	972.00
248.99	987.00
249.25	922.00
249.52	946.00
249.79	985.00
250.05	974.00
250.32	951.00
250.59	926.00
250.86	934.00
251.12	954.00
251.39	928.00
251.66	966.00
251.92	995.00
252.19	1009.00
252.46	933.00
252.73	974.00
252.99	987.00
253.26	997.00
253.53	937.00
253.79	962.00
254.06	957.00
254.33	941.00
254.60	916.00
254.86	938.00
255.13	996.00
255.40	1010.00
255.66	960.00
255.93	984.00
256.20	991.00
256.46	987.00
256.73	941.00
257.00	960.00
257.26	980.00
257.53	975.00
257.80	963.00
258.07	962.00
258.33	1011.00
258.60	990.00
258.87	924.00
259.13	952.00
259.40	939.00
259.67	988.00
259.93	944.00
260.20	955.00
260.47	989.00
260.73	955.00
261.00	938.00
261.27	941.00
261.53	989.00
261.80	965.00
262.07	921.00
262.34	950.00
262.60	938.00
262.87	961.00
263.14	936.00
263.40	976.00
263.67	955.00
263.94	969.00
264.20	947.00
264.47	926.00
264.74	942.00
265.00	950.00
265.27	933.00
265.54	943.00
265.80	997.00
266.07	1001.00
266.34	933.00
266.60	940.00
266.87	963.00
267.14	973.00
267.40	915.00
267.67	921.00
267.94	970.00
268.20	975.00
268.47	934.00
268.74	928.00
269.00	962.00
269.27	938.00
269.54	896.00
269.80	947.00
270.07	987.00
270.33	966.00
270.60	931.00
270.87	953.00
271.13	958.00
271.40	974.00
271.67	912.00
271.93	907.00
272.20	961.00
272.47	950.00
272.73	900.00
273.00	959.00
273.27	969.00
273.53	989.00
273.80	937.00
274.07	924.00
274.33	950.00
274.60	987.00
274.86	942.00
275.13	958.00
275.40	945.00
275.66	989.00
275.93	927.00
276.20	919.00
276.46	943.00
276.73	945.00
277.00	934.00
277.26	941.00
277.53	964.00
277.79	941.00
278.06	925.00
278.33	990.00
278.59	976.00
278.86	946.00
279.13	937.00
279.39	949.00
279.66	991.00
279.93	993.00
280.19	928.00
280.46	939.00
280.72	944.00
280.99	974.00
281.26	937.00
281.52	914.00
281.79	952.00
282.05	963.00
282.32	946.00
282.59	946.00
282.85	988.00
283.12	974.00
283.39	942.00
283.65	953.00
283.92	959.00
284.18	983.00
284.45	949.00
284.72	953.00
284.98	944.00
285.25	943.00
285.51	955.00
285.78	947.00
286.05	941.00
286.31	961.00
286.58	915.00
286.84	922.00
287.11	938.00
287.38	967.00
287.64	956.00
287.91	941.00
288.17	971.00
288.44	964.00
288.71	911.00
288.97	955.00
289.24	974.00
289.50	945.00
289.77	966.00
290.04	925.00
290.30	936.00
290.57	979.00
290.83	929.00
291.10	924.00
291.37	959.00
291.63	962.00
291.90	958.00
292.16	950.00
292.43	972.00
292.70	945.00
292.96	918.00
293.23	938.00
293.49	929.00
293.76	953.00
294.02	922.00
294.29	925.00
294.56	966.00
294.82	981.00
295.09	937.00
295.35	922.00
295.62	974.00
295.89	996.00
296.15	938.00
296.42	924.00
296.68	943.00
296.95	956.00
297.21	957.00
297.48	942.00
297.75	949.00
298.01	988.00
298.28	938.00
298.54	943.00
298.81	945.00
299.07	966.00
299.34	906.00
299.61	927.00
299.87	966.00
300.14	956.00
300.40	932.00
300.67	938.00
300.93	963.00
301.20	1004.00
301.46	937.00
301.73	951.00
302.00	978.00
302.26	956.00
302.53	962.00
302.79	956.00
303.06	966.00
303.32	1001.00
303.59	937.00
303.85	935.00
304.12	935.00
304.39	954.00
304.65	929.00
304.92	929.00
305.18	954.00
305.45	973.00
305.71	934.00
305.98	954.00
306.24	968.00
306.51	955.00
306.77	946.00
307.04	940.00
307.31	985.00
307.57	979.00
307.84	895.00
308.10	922.00
308.37	932.00
308.63	967.00
308.90	926.00
309.16	947.00
309.43	983.00
309.69	963.00
309.96	954.00
310.22	952.00
310.49	969.00
310.76	968.00
311.02	927.00
311.29	937.00
311.55	952.00
311.82	958.00
312.08	949.00
312.35	957.00
312.61	977.00
312.88	990.00
313.14	937.00
313.41	914.00
313.67	924.00
313.94	956.00
314.20	945.00
314.47	958.00
314.73	947.00
315.00	946.00
315.26	907.00
315.53	957.00
315.79	962.00
316.06	958.00
316.32	940.00
316.59	951.00
316.85	964.00
317.12	978.00
317.39	899.00
317.65	934.00
317.92	952.00
318.18	973.00
318.45	941.00
318.71	990.00
318.98	971.00
319.24	959.00
319.51	941.00
319.77	935.00
320.04	942.00
320.30	946.00
320.57	910.00
320.83	917.00
321.10	927.00
321.36	946.00
321.63	918.00
321.89	918.00
322.16	979.00
322.42	973.00
322.69	940.00
322.95	940.00
323.22	983.00
323.48	973.00
323.75	919.00
324.01	937.00
324.28	954.00
324.54	943.00
324.80	929.00
325.07	961.00
325.33	980.00
325.60	947.00
325.86	909.00
326.13	936.00
326.39	937.00
326.66	938.00
326.92	893.00
327.19	936.00
327.45	996.00
327.72	1010.00
327.98	918.00
328.25	920.00
328.51	945.00
328.78	948.00
329.04	937.00
329.31	958.00
329.57	952.00
329.84	953.00
330.10	928.00
330.37	931.00
330.63	981.00
330.89	1011.00
331.16	925.00
331.42	924.00
331.69	959.00
331.95	952.00
332.22	949.00
332.48	991.00
332.75	977.00
333.01	940.00
333.28	941.00
333.54	944.00
333.81	956.00
334.07	965.00
334.34	937.00
334.60	958.00
334.86	995.00
335.13	984.00
335.39	927.00
335.66	952.00
335.92	984.00
336.19	989.00
336.45	905.00
336.72	925.00
336.98	929.00
337.24	946.00
337.51	916.00
337.77	939.00
338.04	961.00
338.30	949.00
338.57	909.00
338.83	954.00
339.10	971.00
339.36	961.00
339.63	927.00
339.89	909.00
340.15	939.00
340.42	962.00
340.68	947.00
340.95	942.00
341.21	956.00
341.48	969.00
341.74	910.00
342.00	909.00
342.27	953.00
342.53	961.00
342.80	924.00
343.06	934.00
343.33	946.00
343.59	981.00
343.85	937.00
344.12	937.00
344.38	999.00
344.65	988.00
344.91	937.00
345.18	921.00
345.44	940.00
345.70	950.00
345.97	894.00
346.23	922.00
346.50	965.00
346.76	983.00
347.03	950.00
347.29	929.00
347.55	945.00
347.82	955.00
348.08	904.00
348.35	923.00
348.61	993.00
348.87	967.00
349.14	902.00
349.40	920.00
349.67	971.00
349.93	953.00
350.20	933.00
350.46	929.00
350.72	955.00
350.99	952.00
351.25	939.00
351.52	944.00
351.78	954.00
352.04	968.00
352.31	941.00
352.57	942.00
352.84	942.00
353.10	963.00
353.36	961.00
353.63	940.00
353.89	942.00
354.16	958.00
354.42	939.00
354.68	948.00
354.95	992.00
355.21	990.00
355.48	921.00
355.74	966.00
356.00	995.00
356.27	997.00
356.53	925.00
356.80	938.00
357.06	954.00
357.32	977.00
357.59	951.00
357.85	963.00
358.11	1000.00
358.38	981.00
358.64	940.00
358.91	958.00
359.17	969.00
359.43	986.00
359.70	959.00
359.96	957.00
360.22	976.00
360.49	956.00
360.75	936.00
361.02	912.00
361.28	937.00
361.54	958.00
361.81	927.00
362.07	942.00
362.33	947.00
362.60	943.00
362.86	924.00
363.13	949.00
363.39	981.00
363.65	980.00
363.92	893.00
364.18	895.00
364.44	945.00
364.71	959.00
364.97	931.00
365.24	929.00
365.50	964.00
365.76	981.00
366.03	926.00
366.29	955.00
366.55	962.00
366.82	944.00
367.08	924.00
367.34	954.00
367.61	975.00
367.87	980.00
368.13	958.00
368.40	945.00
368.66	999.00
368.93	980.00
369.19	910.00
369.45	917.00
369.72	944.00
369.98	953.00
370.24	903.00
370.51	928.00
370.77	954.00
371.03	938.00
371.30	932.00
371.56	973.00
371.82	991.00
372.09	962.00
372.35	951.00
372.61	930.00
372.88	957.00
373.14	973.00
373.40	930.00
373.67	924.00
373.93	962.00
374.19	987.00
374.46	939.00
374.72	933.00
374.98	954.00
375.25	958.00
375.51	962.00
375.77	973.00
376.04	978.00
376.30	967.00
376.56	921.00
376.83	915.00
377.09	968.00
377.35	968.00
377.62	941.00
377.88	946.00
378.14	956.00
378.41	971.00
378.67	932.00
378.93	931.00
379.20	967.00
379.46	943.00
379.72	929.00
379.99	932.00
380.25	944.00
380.51	930.00
380.77	921.00
381.04	926.00
381.30	958.00
381.56	978.00
381.83	945.00
382.09	927.00
382.35	936.00
382.62	965.00
382.88	939.00
383.14	938.00
383.41	936.00
383.67	948.00
383.93	951.00
384.20	955.00
384.46	954.00
384.72	994.00
384.98	927.00
385.25	938.00
385.51	962.00
385.77	961.00
386.04	934.00
386.30	919.00
386.56	965.00
386.82	1005.00
387.09	938.00
387.35	961.00
387.61	1027.00
387.88	979.00
388.14	944.00
388.40	947.00
388.67	947.00
388.93	943.00
389.19	925.00
389.45	911.00
389.72	954.00
389.98	984.00
390.24	949.00
390.51	934.00
390.77	969.00
391.03	970.00
391.29	918.00
391.56	948.00
391.82	972.00
392.08	992.00
392.35	942.00
392.61	933.00
392.87	957.00
393.13	973.00
393.40	930.00
393.66	933.00
393.92	954.00
394.18	973.00
394.45	920.00
394.71	930.00
394.97	941.00
395.24	926.00
395.50	920.00
395.76	960.00
396.02	980.00
396.29	955.00
396.55	906.00
396.81	879.00
397.07	935.00
397.34	931.00
397.60	906.00
397.86	916.00
398.12	938.00
398.39	974.00
398.65	926.00
398.91	948.00
399.17	958.00
399.44	916.00
399.70	872.00
399.96	905.00
400.22	933.00
400.49	978.00
400.75	945.00
401.01	921.00
401.27	926.00
401.54	982.00
401.80	934.00
402.06	927.00
402.32	981.00
402.59	943.00
402.85	916.00
403.11	941.00
403.37	928.00
403.64	972.00
403.90	932.00
404.16	929.00
404.42	940.00
404.69	933.00
404.95	908.00
405.21	909.00
405.47	941.00
405.74	960.00
406.00	931.00
406.26	929.00
406.52	969.00
406.79	972.00
407.05	933.00
407.31	934.00
407.57	941.00
407.83	956.00
408.10	905.00
408.36	925.00
408.62	948.00
408.88	936.00
409.15	915.00
409.41	884.00
409.67	912.00
409.93	955.00
410.20	933.00
410.46	931.00
410.72	925.00
410.98	954.00
411.24	929.00
411.51	920.00
411.77	947.00
412.03	958.00
412.29	963.00
412.55	965.00
412.82	927.00
413.08	953.00
413.34	944.00
413.60	947.00
413.87	944.00
414.13	970.00
414.39	916.00
414.65	932.00
414.91	941.00
415.18	917.00
415.44	899.00
415.70	910.00
415.96	952.00
416.22	938.00
416.49	912.00
416.75	939.00
417.01	953.00
417.27	935.00
417.53	926.00
417.80	927.00
418.06	950.00
418.32	961.00
418.58	905.00
418.84	900.00
419.11	946.00
419.37	958.00
419.63	918.00
419.89	924.00
420.15	946.00
420.42	945.00
420.68	922.00
420.94	921.00
421.20	943.00
421.46	968.00
421.72	960.00
421.99	936.00
422.25	937.00
422.51	954.00
422.77	937.00
423.03	954.00
423.30	961.00
423.56	974.00
423.82	971.00
424.08	952.00
424.34	955.00
424.60	956.00
424.87	916.00
425.13	920.00
425.39	928.00
425.65	942.00
425.91	906.00
426.18	947.00
426.44	973.00
426.70	933.00
426.96	898.00
427.22	896.00
427.48	933.00
427.75	928.00
428.01	878.00
428.27	915.00
428.53	971.00
428.79	933.00
429.05	912.00
429.32	917.00
429.58	956.00
429.84	937.00
430.10	934.00
430.36	931.00
430.62	966.00
430.88	970.00
431.15	935.00
431.41	937.00
431.67	948.00
431.93	919.00
432.19	892.00
432.45	943.00
432.72	949.00
432.98	942.00
433.24	958.00
433.50	1035.00
433.76	946.00
434.02	926.00
434.28	899.00
434.55	913.00
434.81	942.00
435.07	952.00
435.33	891.00
435.59	906.00
435.85	940.00
436.11	953.00
436.38	900.00
436.64	903.00
436.90	941.00
437.16	932.00
437.42	903.00
437.68	921.00
437.94	949.00
438.21	956.00
438.47	969.00
438.73	957.00
438.99	946.00
439.25	944.00
439.51	916.00
439.77	925.00
440.03	930.00
440.30	956.00
440.56	935.00
440.82	958.00
441.08	967.00
441.34	941.00
441.60	912.00
441.86	948.00
442.12	976.00
442.39	958.00
442.65	914.00
442.91	907.00
443.17	929.00
443.43	955.00
443.69	942.00
443.95	913.00
444.21	924.00
444.47	965.00
444.74	921.00
445.00	945.00
445.26	948.00
445.52	958.00
445.78	907.00
446.04	926.00
446.30	972.00
446.56	957.00
446.82	910.00
447.09	935.00
447.35	946.00
447.61	955.00
447.87	916.00
448.13	921.00
448.39	986.00
448.65	973.00
448.91	920.00
449.17	917.00
449.43	926.00
449.70	940.00
449.96	903.00
450.22	919.00
450.48	947.00
450.74	971.00
451.00	926.00
451.26	941.00
451.52	948.00
451.78	939.00
452.04	921.00
452.31	955.00
452.57	963.00
452.83	937.00
453.09	925.00
453.35	925.00
453.61	948.00
453.87	949.00
454.13	950.00
454.39	963.00
454.65	1019.00
454.91	991.00
455.17	903.00
455.44	919.00
455.70	937.00
455.96	953.00
456.22	919.00
456.48	942.00
456.74	952.00
457.00	913.00
457.26	884.00
457.52	918.00
457.78	934.00
458.04	951.00
458.30	912.00
458.56	926.00
458.82	949.00
459.09	927.00
459.35	862.00
459.61	892.00
459.87	943.00
460.13	977.00
460.39	919.00
460.65	914.00
460.91	982.00
461.17	926.00
461.43	894.00
461.69	905.00
461.95	960.00
462.21	937.00
462.47	933.00
462.73	960.00
462.99	977.00
463.26	973.00
463.52	903.00
463.78	888.00
464.04	906.00
464.30	926.00
464.56	905.00
464.82	932.00
465.08	978.00
465.34	984.00
465.60	947.00
465.86	924.00
466.12	945.00
466.38	929.00
466.64	910.00
466.90	925.00
467.16	946.00
467.42	974.00
467.68	911.00
467.94	936.00
468.20	977.00
468.46	948.00
468.72	918.00
468.98	961.00
469.25	957.00
469.51	930.00
469.77	929.00
470.03	943.00
470.29	954.00
470.55	949.00
470.81	923.00
471.07	935.00
471.33	964.00
471.59	973.00
471.85	914.00
472.11	930.00
472.37	960.00
472.63	951.00
472.89	945.00
473.15	925.00
473.41	947.00
473.67	933.00
473.93	892.00
474.19	911.00
474.45	921.00
474.71	924.00
474.97	898.00
475.23	922.00
475.49	929.00
475.75	914.00
476.01	923.00
476.27	925.00
476.53	956.00
476.79	959.00
477.05	926.00
477.31	918.00
477.57	956.00
477.83	935.00
478.09	908.00
478.35	936.00
478.61	967.00
478.87	956.00
479.13	917.00
479.39	955.00
479.65	968.00
479.91	963.00
480.17	953.00
480.43	952.00
480.69	938.00
480.95	952.00
481.21	916.00
481.47	928.00
481.73	945.00
481.99	919.00
482.25	902.00
482.51	902.00
482.77	961.00
483.03	958.00
483.29	935.00
483.55	935.00
483.81	954.00
484.07	981.00
484.33	928.00
484.59	907.00
484.85	955.00
485.11	948.00
485.37	927.00
485.63	926.00
485.89	916.00
486.15	917.00
486.41	918.00
486.67	922.00
486.93	952.00
487.19	944.00
487.45	918.00
487.71	918.00
487.97	961.00
488.23	956.00
488.49	905.00
488.75	916.00
489.01	957.00
489.27	981.00
489.53	919.00
489.79	913.00
490.05	930.00
490.31	962.00
490.57	941.00
490.83	969.00
491.08	949.00
491.34	932.00
491.60	904.00
491.86	927.00
492.12	990.00
492.38	974.00
492.64	929.00
492.90	920.00
493.16	951.00
493.42	915.00
493.68	901.00
493.94	928.00
494.20	930.00
494.46	949.00
494.72	908.00
494.98	920.00
495.24	927.00
495.50	941.00
495.76	935.00
496.02	950.00
496.28	958.00
496.54	958.00
496.80	923.00
497.05	901.00
497.31	968.00
497.57	966.00
497.83	912.00
498.09	938.00
498.35	986.00
498.61	943.00
498.87	912.00
499.13	928.00
499.39	933.00
499.65	938.00
499.91	933.00
500.17	931.00
500.43	1010.00
500.69	1038.00
500.95	931.00
501.20	967.00
501.46	958.00
501.72	948.00
501.98	936.00
502.24	941.00
502.50	977.00
502.76	951.00
503.02	912.00
503.28	925.00
503.54	993.00
503.80	988.00
504.06	946.00
504.32	968.00
504.58	951.00
504.83	952.00
505.09	910.00
505.35	925.00
505.61	931.00
505.87	944.00
506.13	929.00
506.39	916.00
506.65	955.00
506.91	982.00
507.17	923.00
507.43	928.00
507.68	949.00
507.94	968.00
508.20	923.00
508.46	901.00
508.72	971.00
508.98	973.00
509.24	923.00
509.50	944.00
509.76	942.00
510.02	942.00
510.28	910.00
510.53	922.00
510.79	949.00
511.05	956.00
511.31	920.00
511.57	928.00
511.83	949.00
512.09	969.00
512.35	922.00
512.61	940.00
512.87	954.00
513.12	966.00
513.38	907.00
513.64	931.00
513.90	972.00
514.16	985.00
514.42	951.00
514.68	945.00
514.94	970.00
515.20	959.00
515.45	898.00
515.71	931.00
515.97	950.00
516.23	931.00
516.49	923.00
516.75	918.00
517.01	949.00
517.27	954.00
517.53	921.00
517.78	912.00
518.04	935.00
518.30	927.00
518.56	918.00
518.82	940.00
519.08	980.00
519.34	930.00
519.60	929.00
519.85	944.00
520.11	940.00
520.37	935.00
520.63	923.00
520.89	942.00
521.15	967.00
521.41	945.00
521.66	933.00
521.92	940.00
522.18	970.00
522.44	990.00
522.70	932.00
522.96	907.00
523.22	948.00
523.48	938.00
523.73	917.00
523.99	915.00
524.25	986.00
524.51	979.00
524.77	922.00
525.03	926.00
525.29	948.00
525.54	955.00
525.80	925.00
526.06	928.00
526.32	929.00
526.58	932.00
526.84	907.00
527.09	912.00
527.35	922.00
527.61	935.00
527.87	895.00
528.13	932.00
528.39	930.00
528.65	930.00
528.90	897.00
529.16	900.00
529.42	908.00
529.68	931.00
529.94	913.00
530.20	930.00
530.45	914.00
530.71	944.00
530.97	914.00
531.23	925.00
531.49	938.00
531.75	953.00
532.00	945.00
532.26	922.00
532.52	967.00
532.78	918.00
533.04	900.00
533.30	911.00
533.55	944.00
533.81	944.00
534.07	883.00
534.33	908.00
534.59	948.00
534.85	938.00
535.10	924.00
535.36	906.00
535.62	947.00
535.88	937.00
536.14	905.00
536.39	905.00
536.65	978.00
536.91	973.00
537.17	900.00
537.43	923.00
537.69	983.00
537.94	952.00
538.20	910.00
538.46	927.00
538.72	949.00
538.98	956.00
539.23	906.00
539.49	897.00
539.75	961.00
540.01	950.00
540.27	906.00
540.52	956.00
540.78	948.00
541.04	955.00
541.30	900.00
541.56	898.00
541.81	983.00
542.07	1036.00
542.33	940.00
542.59	935.00
542.85	939.00
543.10	949.00
543.36	908.00
543.62	958.00
543.88	950.00
544.14	935.00
544.39	890.00
544.65	917.00
544.91	964.00
545.17	963.00
545.43	921.00
545.68	917.00
545.94	947.00
546.20	953.00
546.46	915.00
546.71	922.00
546.97	948.00
547.23	946.00
547.49	913.00
547.75	921.00
548.00	955.00
548.26	964.00
548.52	902.00
548.78	893.00
549.03	929.00
549.29	931.00
549.55	885.00
549.81	935.00
550.07	970.00
550.32	954.00
550.58	906.00
550.84	940.00
551.10	951.00
551.35	934.00
551.61	905.00
551.87	931.00
552.13	946.00
552.39	923.00
552.64	886.00
552.90	910.00
553.16	938.00
553.42	945.00
553.67	910.00
553.93	916.00
554.19	939.00
554.45	978.00
554.70	944.00
554.96	916.00
555.22	940.00
555.48	948.00
555.73	917.00
555.99	930.00
556.25	965.00
556.51	955.00
556.76	924.00
557.02	926.00
557.28	943.00
557.54	929.00
557.79	913.00
558.05	946.00
558.31	929.00
558.57	954.00
558.82	901.00
559.08	880.00
559.34	904.00
559.60	951.00
559.85	931.00
560.11	913.00
560.37	937.00
560.63	931.00
560.88	884.00
561.14	911.00
561.40	952.00
561.66	913.00
561.91	913.00
562.17	913.00
562.43	937.00
562.68	964.00
562.94	935.00
563.20	941.00
563.46	953.00
563.71	956.00
563.97	903.00
564.23	929.00
564.49	966.00
564.74	937.00
565.00	907.00
565.26	924.00
565.51	927.00
565.77	933.00
566.03	902.00
566.29	929.00
566.54	928.00
566.80	924.00
567.06	906.00
567.31	941.00
567.57	965.00
567.83	931.00
568.09	919.00
568.34	917.00
568.60	929.00
568.86	971.00
569.11	941.00
569.37	922.00
569.63	946.00
569.89	958.00
570.14	884.00
570.40	916.00
570.66	939.00
570.91	939.00
571.17	908.00
571.43	929.00
571.69	972.00
571.94	983.00
572.20	905.00
572.46	932.00
572.71	967.00
572.97	952.00
573.23	901.00
573.48	899.00
573.74	928.00
574.00	968.00
574.26	908.00
574.51	921.00
574.77	959.00
575.03	927.00
575.28	907.00
575.54	904.00
575.80	916.00
576.05	940.00
576.31	907.00
576.57	900.00
576.82	928.00
577.08	944.00
577.34	922.00
577.59	933.00
577.85	963.00
578.11	921.00
578.37	901.00
578.62	911.00
578.88	964.00
579.14	965.00
579.39	932.00
579.65	936.00
579.91	933.00
580.16	954.00
580.42	928.00
580.68	915.00
580.93	929.00
581.19	915.00
581.45	900.00
581.70	932.00
581.96	962.00
582.22	978.00
582.47	935.00
582.73	936.00
582.99	965.00
583.24	948.00
583.50	892.00
583.76	919.00
584.01	946.00
584.27	964.00
584.53	920.00
584.78	929.00
585.04	923.00
585.30	950.00
585.55	942.00
585.81	920.00
586.07	968.00
586.32	966.00
586.58	936.00
586.83	946.00
587.09	957.00
587.35	927.00
587.60	923.00
587.86	917.00
588.12	937.00
588.37	960.00
588.63	926.00
588.89	930.00
589.14	967.00
589.40	964.00
589.66	907.00
589.91	949.00
590.17	974.00
590.43	920.00
590.68	914.00
590.94	925.00
591.19	969.00
591.45	950.00
591.71	940.00
591.96	942.00
592.22	975.00
592.48	981.00
592.73	914.00
592.99	922.00
593.25	946.00
593.50	948.00
593.76	910.00
594.01	927.00
594.27	964.00
594.53	954.00
594.78	930.00
595.04	932.00
595.30	950.00
595.55	969.00
595.81	906.00
596.06	956.00
596.32	985.00
596.58	964.00
596.83	942.00
597.09	964.00
597.35	978.00
597.60	944.00
597.86	924.00
598.11	940.00
598.37	971.00
598.63	970.00
598.88	941.00
599.14	933.00
599.39	960.00
599.65	967.00
599.91	925.00
600.16	947.00
600.42	971.00
600.67	976.00
600.93	934.00
601.19	977.00
601.44	1015.00
601.70	1009.00
601.95	941.00
602.21	951.00
602.47	956.00
602.72	988.00
602.98	958.00
603.23	949.00
603.49	980.00
603.75	993.00
604.00	971.00
604.26	977.00
604.51	981.00
604.77	1014.00
605.03	958.00
605.28	971.00
605.54	1039.00
605.79	1040.00
606.05	953.00
606.31	993.00
606.56	1008.00
606.82	1023.00
607.07	1007.00
607.33	1005.00
607.59	1042.00
607.84	1026.00
608.10	995.00
608.35	1025.00
608.61	1049.00
608.86	1058.00
609.12	1033.00
609.38	1076.00
609.63	1096.00
609.89	1066.00
610.14	1022.00
610.40	1060.00
610.65	1081.00
610.91	1069.00
611.17	1056.00
611.42	1074.00
611.68	1113.00
611.93	1138.00
612.19	1113.00
612.44	1128.00
612.70	1119.00
612.96	1103.00
613.21	1078.00
613.47	1073.00
613.72	1094.00
613.98	1136.00
614.23	1107.00
614.49	1121.00
614.75	1178.00
615.00	1182.00
615.26	1175.00
615.51	1177.00
615.77	1199.00
616.02	1228.00
616.28	1196.00
616.53	1200.00
616.79	1203.00
617.05	1202.00
617.30	1171.00
617.56	1215.00
617.81	1281.00
618.07	1285.00
618.32	1312.00
618.58	1368.00
618.83	1417.00
619.09	1409.00
619.34	1384.00
619.60	1386.00
619.86	1422.00
620.11	1494.00
620.37	1509.00
620.62	1557.00
620.88	1617.00
621.13	1618.00
621.39	1563.00
621.64	1641.00
621.90	1710.00
622.15	1681.00
622.41	1694.00
622.66	1757.00
622.92	1851.00
623.18	1923.00
623.43	1886.00
623.69	1910.00
623.94	2030.00
624.20	2220.00
624.45	2415.00
624.71	2440.00
624.96	2434.00
625.22	2457.00
625.47	2446.00
625.73	2641.00
625.98	2951.00
626.24	3043.00
626.49	3037.00
626.75	3115.00
627.00	3177.00
627.26	3229.00
627.51	3532.00
627.77	3738.00
628.02	3792.00
628.28	4052.00
628.53	4055.00
628.79	4148.00
629.05	4651.00
629.30	5125.00
629.56	5211.00
629.81	5516.00
630.07	5816.00
630.32	6145.00
630.58	6402.00
630.83	6548.00
631.09	7061.00
631.34	7801.00
631.60	8074.00
631.85	7748.00
632.11	8757.00
632.36	10372.00
632.62	10576.00
632.87	10789.00
633.13	11711.00
633.38	12708.00
633.64	14833.00
633.89	15173.00
634.15	13666.00
634.40	12391.00
634.66	12432.00
634.91	13728.00
635.17	14324.00
635.42	15226.00
635.68	15048.00
635.93	15126.00
636.18	15902.00
636.44	15138.00
636.69	13805.00
636.95	12762.00
637.20	12449.00
637.46	12985.00
637.71	12422.00
637.97	11114.00
638.22	10505.00
638.48	10139.00
638.73	9258.00
638.99	7804.00
639.24	6775.00
639.50	6028.00
639.75	6531.00
640.01	6825.00
640.26	6311.00
640.52	5984.00
640.77	5396.00
641.03	4479.00
641.28	3762.00
641.54	3593.00
641.79	3653.00
642.04	3822.00
642.30	3590.00
642.55	3422.00
642.81	3433.00
643.06	3095.00
643.32	2758.00
643.57	2728.00
643.83	2716.00
644.08	2622.00
644.34	2552.00
644.59	2408.00
644.85	2274.00
645.10	2147.00
645.35	2109.00
645.61	1997.00
645.86	1814.00
646.12	1696.00
646.37	1680.00
646.63	1738.00
646.88	1662.00
647.14	1647.00
647.39	1671.00
647.65	1594.00
647.90	1399.00
648.15	1372.00
648.41	1361.00
648.66	1351.00
648.92	1344.00
649.17	1345.00
649.43	1317.00
649.68	1301.00
649.94	1284.00
650.19	1234.00
650.44	1250.00
650.70	1264.00
650.95	1210.00
651.21	1237.00
651.46	1247.00
651.72	1204.00
651.97	1138.00
652.23	1104.00
652.48	1128.00
652.73	1129.00
652.99	1085.00
653.24	1090.00
653.50	1082.00
653.75	1086.00
654.01	1086.00
654.26	1077.00
654.51	1077.00
654.77	1083.00
655.02	1049.00
655.28	1039.00
655.53	1043.00
655.79	1068.00
656.04	1042.00
656.29	1048.00
656.55	1030.00
656.80	1055.00
657.06	1008.00
657.31	987.00
657.56	1011.00
657.82	1013.00
658.07	977.00
658.33	1002.00
658.58	1008.00
658.84	1010.00
659.09	964.00
659.34	973.00
659.60	987.00
659.85	977.00
660.11	952.00
660.36	962.00
660.61	994.00
660.87	961.00
661.12	933.00
661.38	951.00
661.63	968.00
661.88	969.00
662.14	974.00
662.39	987.00
662.65	1006.00
662.90	1016.00
663.15	940.00
663.41	942.00
663.66	990.00
663.92	995.00
664.17	946.00
664.42	958.00
664.68	967.00
664.93	957.00
665.19	933.00
665.44	940.00
665.69	919.00
665.95	951.00
666.20	921.00
666.45	967.00
666.71	959.00
666.96	956.00
667.22	900.00
667.47	940.00
667.72	941.00
667.98	963.00
668.23	917.00
668.49	967.00
668.74	967.00
668.99	969.00
669.25	920.00
669.50	918.00
669.75	958.00
670.01	969.00
670.26	896.00
670.52	935.00
670.77	959.00
671.02	944.00
671.28	922.00
671.53	927.00
671.78	945.00
672.04	967.00
672.29	914.00
672.54	937.00
672.80	961.00
673.05	966.00
673.31	921.00
673.56	945.00
673.81	973.00
674.07	958.00
674.32	937.00
674.57	919.00
674.83	922.00
675.08	953.00
675.33	932.00
675.59	933.00
675.84	958.00
676.09	941.00
676.35	923.00
676.60	934.00
676.86	951.00
677.11	974.00
677.36	927.00
677.62	917.00
677.87	959.00
678.12	999.00
678.38	922.00
678.63	920.00
678.88	963.00
679.14	988.00
679.39	902.00
679.64	940.00
679.90	924.00
680.15	948.00
680.40	939.00
680.66	928.00
680.91	941.00
681.16	942.00
681.42	911.00
681.67	922.00
681.92	934.00
682.18	971.00
682.43	904.00
682.68	917.00
682.94	914.00
683.19	920.00
683.44	902.00
683.70	930.00
683.95	928.00
684.20	930.00
684.46	916.00
684.71	921.00
684.96	934.00
685.22	957.00
685.47	922.00
685.72	941.00
685.98	951.00
686.23	907.00
686.48	893.00
686.74	944.00
686.99	967.00
687.24	942.00
687.50	905.00
687.75	906.00
688.00	925.00
688.25	939.00
688.51	911.00
688.76	945.00
689.01	924.00
689.27	932.00
689.52	912.00
689.77	935.00
690.03	917.00
690.28	918.00
690.53	920.00
690.79	928.00
691.04	946.00
691.29	960.00
691.54	880.00
691.80	920.00
692.05	938.00
692.30	947.00
692.56	926.00
692.81	937.00
693.06	930.00
693.32	896.00
693.57	902.00
693.82	929.00
694.07	951.00
694.33	953.00
694.58	912.00
694.83	935.00
695.09	926.00
695.34	960.00
695.59	922.00
695.84	939.00
696.10	952.00
696.35	965.00
696.60	894.00
696.86	919.00
697.11	940.00
697.36	954.00
697.61	901.00
697.87	920.00
698.12	927.00
698.37	942.00
698.63	925.00
698.88	910.00
699.13	943.00
699.38	933.00
699.64	904.00
699.89	913.00
700.14	908.00
700.39	911.00
700.65	912.00
700.90	947.00
701.15	948.00
701.40	960.00
701.66	924.00
701.91	940.00
702.16	937.00
702.42	934.00
702.67	890.00
702.92	897.00
703.17	923.00
703.43	935.00
703.68	913.00
703.93	943.00
704.18	981.00
704.44	945.00
704.69	929.00
704.94	929.00
705.19	935.00
705.45	976.00
705.70	924.00
705.95	916.00
706.20	915.00
706.46	942.00
706.71	938.00
706.96	923.00
707.21	938.00
707.47	949.00
707.72	938.00
707.97	940.00
708.22	948.00
708.48	964.00
708.73	893.00
708.98	894.00
709.23	930.00
709.49	937.00
709.74	916.00
709.99	919.00
710.24	936.00
710.50	943.00
710.75	913.00
711.00	941.00
711.25	948.00
711.50	936.00
711.76	894.00
712.01	901.00
712.26	907.00
712.51	933.00
712.77	913.00
713.02	923.00
713.27	916.00
713.52	925.00
713.78	902.00
714.03	919.00
714.28	918.00
714.53	950.00
714.78	914.00
715.04	945.00
715.29	948.00
715.54	942.00
715.79	901.00
716.05	927.00
716.30	937.00
716.55	950.00
716.80	927.00
717.05	941.00
717.31	934.00
717.56	956.00
717.81	929.00
718.06	891.00
718.31	907.00
718.57	935.00
718.82	909.00
719.07	945.00
719.32	920.00
719.57	940.00
719.83	911.00
720.08	922.00
720.33	904.00
720.58	900.00
720.83	887.00
721.09	956.00
721.34	940.00
721.59	944.00
721.84	884.00
722.09	908.00
722.35	921.00
722.60	920.00
722.85	892.00
723.10	933.00
723.35	919.00
723.61	929.00
723.86	939.00
724.11	938.00
724.36	926.00
724.61	924.00
724.87	923.00
725.12	925.00
725.37	903.00
725.62	912.00
725.87	910.00
726.12	910.00
726.38	911.00
726.63	938.00
726.88	904.00
727.13	931.00
727.38	918.00
727.64	934.00
727.89	900.00
728.14	916.00
728.39	905.00
728.64	936.00
728.89	910.00
729.15	936.00
729.40	944.00
729.65	946.00
729.90	889.00
730.15	915.00
730.40	953.00
730.66	940.00
730.91	905.00
731.16	945.00
731.41	934.00
731.66	949.00
731.91	907.00
732.17	955.00
732.42	957.00
732.67	924.00
732.92	900.00
733.17	933.00
733.42	933.00
733.68	932.00
733.93	907.00
734.18	918.00
734.43	897.00
734.68	929.00
734.93	912.00
735.18	935.00
735.44	946.00
735.69	945.00
735.94	893.00
736.19	918.00
736.44	914.00
736.69	958.00
736.95	916.00
737.20	928.00
737.45	941.00
737.70	933.00
737.95	919.00
738.20	930.00
738.45	933.00
738.70	938.00
738.96	921.00
739.21	957.00
739.46	934.00
739.71	943.00
739.96	922.00
740.21	957.00
740.46	1009.00
740.72	999.00
740.97	916.00
741.22	945.00
741.47	902.00
741.72	933.00
741.97	905.00
742.22	913.00
742.47	945.00
742.73	945.00
742.98	891.00
743.23	905.00
743.48	919.00
743.73	950.00
743.98	916.00
744.23	915.00
744.48	940.00
744.74	923.00
744.99	908.00
745.24	946.00
745.49	932.00
745.74	950.00
745.99	907.00
746.24	929.00
746.49	915.00
746.74	908.00
747.00	916.00
747.25	922.00
747.50	906.00
747.75	913.00
748.00	878.00
748.25	893.00
748.50	931.00
748.75	952.00
749.00	947.00
749.26	981.00
749.51	940.00
749.76	947.00
750.01	898.00
750.26	929.00
750.51	969.00
750.76	942.00
751.01	898.00
751.26	919.00
751.51	952.00
751.77	952.00
752.02	916.00
752.27	921.00
752.52	912.00
752.77	932.00
753.02	920.00
753.27	949.00
753.52	926.00
753.77	930.00
754.02	900.00
754.27	924.00
754.52	908.00
754.78	941.00
755.03	921.00
755.28	920.00
755.53	934.00
755.78	924.00
756.03	888.00
756.28	921.00
756.53	931.00
756.78	940.00
757.03	912.00
757.28	943.00
757.53	956.00
757.79	912.00
758.04	890.00
758.29	961.00
758.54	951.00
758.79	940.00
759.04	880.00
759.29	897.00
759.54	902.00
759.79	916.00
760.04	917.00
760.29	925.00
760.54	929.00
760.79	939.00
761.04	891.00
761.29	913.00
761.55	901.00
761.80	919.00
762.05	881.00
762.30	926.00
762.55	913.00
762.80	947.00
763.05	946.00
763.30	960.00
763.55	961.00
763.80	944.00
764.05	886.00
764.30	915.00
764.55	959.00
764.80	939.00
765.05	899.00
765.30	932.00
765.55	941.00
765.80	922.00
766.05	878.00
766.30	917.00
766.56	915.00
766.81	939.00
767.06	924.00
767.31	933.00
767.56	915.00
767.81	919.00
768.06	896.00
768.31	930.00
768.56	927.00
768.81	964.00
769.06	908.00
769.31	921.00
769.56	923.00
769.81	943.00
770.06	892.00
770.31	902.00
770.56	928.00
770.81	913.00
771.06	865.00
771.31	922.00
771.56	935.00
771.81	938.00
772.06	885.00
772.31	938.00
772.56	945.00
772.81	964.00
773.06	920.00
773.31	933.00
773.56	921.00
773.81	897.00
774.06	896.00
774.31	925.00
774.56	932.00
774.81	948.00
775.06	920.00
775.31	953.00
775.56	964.00
775.81	926.00
776.06	887.00
776.31	911.00
776.56	926.00
776.82	932.00
777.07	899.00
777.32	895.00
777.57	911.00
777.82	966.00
778.07	914.00
778.32	894.00
778.57	931.00
778.82	947.00
779.07	912.00
779.32	928.00
779.57	902.00
779.82	923.00
780.07	921.00
780.32	933.00
780.56	926.00
780.81	980.00
781.06	912.00
781.31	902.00
781.56	946.00
781.81	942.00
782.06	913.00
782.31	938.00
782.56	928.00
782.81	972.00
783.06	923.00
783.31	936.00
783.56	926.00
783.81	955.00
784.06	905.00
784.31	915.00
784.56	900.00
784.81	956.00
785.06	931.00
785.31	945.00
785.56	909.00
785.81	905.00
786.06	882.00
786.31	930.00
786.56	916.00
786.81	933.00
787.06	914.00
787.31	918.00
787.56	902.00
787.81	907.00
788.06	877.00
788.31	933.00
788.56	909.00
788.81	952.00
789.06	909.00
789.31	927.00
789.56	927.00
789.81	925.00
790.06	899.00
790.31	940.00
790.56	926.00
790.80	908.00
791.05	890.00
791.30	890.00
791.55	910.00
791.80	916.00
792.05	915.00
792.30	904.00
792.55	915.00
792.80	926.00
793.05	899.00
793.30	900.00
793.55	927.00
793.80	940.00
794.05	901.00
794.30	933.00
794.55	929.00
794.80	932.00
795.05	883.00
795.30	901.00
795.54	917.00
795.79	943.00
796.04	904.00
796.29	920.00
796.54	928.00
796.79	948.00
797.04	913.00
797.29	925.00
797.54	944.00
797.79	953.00
798.04	921.00
798.29	900.00
798.54	892.00
798.79	916.00
799.04	892.00
799.29	914.00
799.53	930.00
799.78	939.00
800.03	919.00
800.28	897.00
800.53	906.00
800.78	963.00
801.03	900.00
801.28	924.00
801.53	915.00
801.78	950.00
802.03	901.00
802.28	926.00
802.52	957.00
802.77	950.00
803.02	926.00
803.27	933.00
803.52	914.00
803.77	950.00
804.02	937.00
804.27	936.00
804.52	926.00
804.77	960.00
805.02	927.00
805.27	951.00
805.51	928.00
805.76	937.00
806.01	896.00
806.26	913.00
806.51	914.00
806.76	972.00
807.01	938.00
807.26	908.00
807.51	937.00
807.76	918.00
808.00	900.00
808.25	935.00
808.50	956.00
808.75	914.00
809.00	890.00
809.25	904.00
809.50	918.00
809.75	952.00
810.00	912.00
810.24	902.00
810.49	886.00
810.74	905.00
810.99	897.00
811.24	907.00
811.49	925.00
811.74	949.00
811.99	872.00
812.24	930.00
812.48	898.00
812.73	899.00
812.98	885.00
813.23	888.00
813.48	916.00
813.73	927.00
813.98	864.00
814.23	892.00
814.47	891.00
814.72	909.00
814.97	901.00
815.22	940.00
815.47	910.00
815.72	919.00
815.97	886.00
816.22	905.00
816.46	927.00
816.71	944.00
816.96	913.00
817.21	931.00
817.46	893.00
817.71	916.00
817.96	904.00
818.20	919.00
818.45	917.00
818.70	937.00
818.95	894.00
819.20	909.00
819.45	905.00
819.70	925.00
819.94	888.00
820.19	902.00
820.44	909.00
820.69	923.00
820.94	904.00
821.19	935.00
821.44	977.00
821.68	991.00
821.93	932.00
822.18	921.00
822.43	938.00
822.68	949.00
822.93	901.00
823.17	917.00
823.42	943.00
823.67	918.00
823.92	886.00
824.17	913.00
824.42	931.00
824.67	952.00
824.91	920.00
825.16	919.00
825.41	931.00
825.66	944.00
825.91	894.00
826.16	922.00
826.40	914.00
826.65	939.00
826.90	893.00
827.15	914.00
827.40	921.00
827.65	944.00
827.89	879.00
828.14	920.00
828.39	916.00
828.64	928.00
828.89	901.00
829.13	914.00
829.38	905.00
829.63	921.00
829.88	888.00
830.13	905.00
830.38	908.00
830.62	924.00
830.87	889.00
831.12	918.00
831.37	950.00
831.62	962.00
831.86	892.00
832.11	916.00
832.36	905.00
832.61	950.00
832.86	916.00
833.10	932.00
833.35	928.00
833.60	930.00
833.85	904.00
834.10	920.00
834.35	948.00
834.59	945.00
834.84	892.00
835.09	917.00
835.34	890.00
835.59	918.00
835.83	919.00
836.08	925.00
836.33	937.00
836.58	926.00
836.83	909.00
837.07	940.00
837.32	943.00
837.57	917.00
837.82	906.00
838.06	919.00
838.31	934.00
838.56	959.00
838.81	898.00
839.06	929.00
839.30	926.00
839.55	931.00
839.80	891.00
840.05	922.00
840.30	961.00
840.54	952.00
840.79	906.00
841.04	921.00
841.29	929.00
841.53	931.00
841.78	907.00
842.03	900.00
842.28	887.00
842.53	892.00
842.77	900.00
843.02	934.00
843.27	925.00
843.52	933.00
843.76	911.00
844.01	936.00
844.26	912.00
844.51	942.00
844.75	900.00
845.00	903.00
845.25	942.00
845.50	937.00
845.75	908.00
845.99	932.00
846.24	925.00
846.49	945.00
846.74	902.00
846.98	902.00
847.23	903.00
847.48	921.00
847.73	896.00
847.97	917.00
848.22	934.00
848.47	935.00
848.72	900.00
848.96	909.00
849.21	934.00
849.46	909.00
849.71	912.00
849.95	932.00
850.20	917.00
850.45	936.00
850.70	883.00
850.94	913.00
851.19	911.00
851.44	910.00
851.69	863.00
851.93	898.00
852.18	931.00
852.43	945.00
852.68	922.00
852.92	955.00
853.17	966.00
853.42	948.00
853.66	914.00
853.91	929.00
854.16	898.00
854.41	966.00
854.65	898.00
854.90	922.00
855.15	931.00
855.40	932.00
855.64	913.00
855.89	919.00
856.14	919.00
856.39	918.00
856.63	898.00
856.88	906.00
857.13	915.00
857.37	915.00
857.62	883.00
857.87	895.00
858.12	918.00
858.36	953.00
858.61	876.00
858.86	910.00
859.10	916.00
859.35	927.00
859.60	880.00
859.85	876.00
860.09	891.00
860.34	932.00
860.59	902.00
860.83	915.00
861.08	924.00
861.33	949.00
861.58	900.00
861.82	897.00
862.07	927.00
862.32	939.00
862.56	897.00
862.81	915.00
863.06	940.00
863.30	929.00
863.55	904.00
863.80	916.00
864.05	949.00
864.29	927.00
864.54	924.00
864.79	940.00
865.03	951.00
865.28	956.00
865.53	910.00
865.77	900.00
866.02	924.00
866.27	937.00
866.51	909.00
866.76	897.00
867.01	902.00
867.26	937.00
867.50	913.00
867.75	897.00
868.00	931.00
868.24	942.00
868.49	893.00
868.74	910.00
868.98	900.00
869.23	930.00
869.48	921.00
869.72	912.00
869.97	902.00
870.22	934.00
870.46	906.00
870.71	930.00
870.96	932.00
871.20	941.00
871.45	870.00
871.70	914.00
871.94	937.00
872.19	946.00
872.44	932.00
872.68	927.00
872.93	919.00
873.18	947.00
873.42	901.00
873.67	912.00
873.92	941.00
874.16	923.00
874.41	913.00
874.66	923.00
874.90	926.00
875.15	956.00
875.40	929.00
875.64	924.00
875.89	914.00
876.14	922.00
876.38	913.00
876.63	922.00
876.88	940.00
877.12	929.00
877.37	892.00
877.62	928.00
877.86	923.00
878.11	921.00
878.36	894.00
878.60	937.00
878.85	937.00
879.09	920.00
879.34	903.00
879.59	916.00
879.83	940.00
880.08	973.00
880.33	945.00
880.57	929.00
880.82	932.00
881.07	930.00
881.31	910.00
881.56	902.00
881.80	901.00
882.05	918.00
882.30	890.00
882.54	923.00
882.79	949.00
883.04	958.00
883.28	923.00
883.53	925.00
883.77	925.00
884.02	936.00
884.27	892.00
884.51	911.00
884.76	906.00
885.01	938.00
885.25	881.00
885.50	932.00
885.74	898.00
885.99	953.00
886.24	894.00
886.48	910.00
886.73	941.00
886.98	951.00
887.22	922.00
887.47	916.00
887.71	924.00
887.96	934.00
888.21	916.00
888.45	895.00
888.70	898.00
888.94	960.00
889.19	893.00
889.44	918.00
889.68	937.00
889.93	965.00
890.17	916.00
890.42	907.00
890.67	956.00
890.91	1032.00
891.16	927.00
891.40	892.00
891.65	906.00
891.90	940.00
892.14	898.00
892.39	923.00
892.63	929.00
892.88	954.00
893.13	909.00
893.37	898.00
893.62	901.00
893.86	934.00
894.11	909.00
894.36	911.00
894.60	909.00
894.85	914.00
895.09	907.00
895.34	944.00
895.59	930.00
895.83	922.00
896.08	892.00
896.32	890.00
896.57	915.00
896.81	930.00
897.06	910.00
897.31	913.00
897.55	933.00
897.80	919.00
898.04	896.00
898.29	896.00
898.53	925.00
898.78	950.00
899.03	923.00
899.27	906.00
899.52	925.00
899.76	954.00
900.01	896.00
900.25	924.00
900.50	931.00
900.75	949.00
900.99	904.00
901.24	967.00
901.48	929.00
901.73	939.00
901.97	887.00
902.22	916.00
902.47	940.00
902.71	930.00
902.96	905.00
903.20	924.00
903.45	940.00
903.69	937.00
903.94	914.00
904.18	890.00
904.43	918.00
904.68	925.00
904.92	878.00
905.17	906.00
905.41	942.00
905.66	946.00
905.90	942.00
906.15	925.00
906.39	948.00
906.64	932.00
906.88	893.00
907.13	921.00
907.38	946.00
907.62	966.00
907.87	901.00
908.11	939.00
908.36	903.00
908.60	928.00
908.85	869.00
909.09	920.00
909.34	936.00
909.58	934.00
909.83	904.00
910.07	909.00
910.32	960.00
910.56	975.00
910.81	905.00
911.06	954.00
911.30	954.00
911.55	932.00
911.79	903.00
912.04	925.00
912.28	920.00
912.53	925.00
912.77	915.00
913.02	911.00
913.26	914.00
913.51	941.00
913.75	925.00
914.00	908.00
914.24	926.00
914.49	939.00
914.73	894.00
914.98	922.00
915.22	940.00
915.47	928.00
915.71	895.00
915.96	932.00
916.20	925.00
916.45	907.00
916.69	899.00
916.94	914.00
917.18	923.00
917.43	940.00
917.67	900.00
917.92	897.00
918.16	939.00
918.41	940.00
918.65	888.00
918.90	887.00
919.14	880.00
919.39	918.00
919.63	904.00
919.88	898.00
920.12	928.00
920.37	925.00
920.61	886.00
920.86	920.00
921.10	935.00
921.35	920.00
921.59	886.00
921.84	907.00
922.08	933.00
922.33	950.00
922.57	882.00
922.82	881.00
923.06	911.00
923.31	934.00
923.55	875.00
923.80	912.00
924.04	920.00
924.29	954.00
924.53	904.00
924.78	910.00
925.02	908.00
925.27	941.00
925.51	917.00
925.76	934.00
926.00	925.00
926.25	902.00
926.49	920.00
926.73	929.00
926.98	906.00
927.22	928.00
927.47	919.00
927.71	933.00
927.96	924.00
928.20	926.00
928.45	927.00
928.69	956.00
928.94	933.00
929.18	919.00
929.43	923.00
929.67	925.00
929.91	919.00
930.16	916.00
930.40	882.00
930.65	881.00
930.89	918.00
931.14	968.00
931.38	932.00
931.63	938.00
931.87	927.00
932.12	935.00
932.36	887.00
932.60	908.00
932.85	933.00
933.09	917.00
933.34	884.00
933.58	922.00
933.83	903.00
934.07	926.00
934.32	911.00
934.56	921.00
934.80	951.00
935.05	954.00
935.29	925.00
935.54	926.00
935.78	913.00
936.03	930.00
936.27	879.00
936.52	899.00
936.76	924.00
937.00	931.00
937.25	892.00
937.49	932.00
937.74	955.00
937.98	949.00
938.23	891.00
938.47	896.00
938.71	924.00
938.96	916.00
939.20	885.00
939.45	903.00
939.69	906.00
939.94	932.00
940.18	893.00
940.42	918.00
940.67	928.00
940.91	929.00
941.16	896.00
941.40	905.00
941.64	918.00
941.89	936.00
942.13	894.00
942.38	910.00
942.62	991.00
942.87	974.00
943.11	928.00
943.35	907.00
943.60	947.00
943.84	975.00
944.09	923.00
944.33	941.00
944.57	945.00
944.82	939.00
945.06	919.00
945.31	943.00
945.55	919.00
945.79	958.00
946.04	924.00
946.28	919.00
946.53	909.00
946.77	920.00
947.01	875.00
947.26	931.00
947.50	931.00
947.75	932.00
947.99	898.00
948.23	924.00
948.48	914.00
948.72	921.00
948.97	912.00
949.21	910.00
949.45	921.00
949.70	941.00
949.94	915.00
950.18	924.00
950.43	928.00
950.67	924.00
950.92	897.00
951.16	916.00
951.40	905.00
951.65	929.00
951.89	908.00
952.13	928.00
952.38	933.00
952.62	928.00
952.87	903.00
953.11	930.00
953.35	955.00
953.60	947.00
953.84	872.00
954.08	887.00
954.33	927.00
954.57	913.00
954.82	917.00
955.06	911.00
955.30	918.00
955.55	932.00
955.79	908.00
956.03	911.00
956.28	924.00
956.52	916.00
956.76	919.00
957.01	934.00
957.25	920.00
957.50	918.00
957.74	888.00
957.98	910.00
958.23	924.00
958.47	913.00
958.71	920.00
958.96	937.00
959.20	962.00
959.44	927.00
959.69	900.00
959.93	926.00
960.17	920.00
960.42	926.00
960.66	924.00
960.90	940.00
961.15	933.00
961.39	938.00
961.64	891.00
961.88	886.00
962.12	931.00
962.37	937.00
962.61	900.00
962.85	889.00
963.10	922.00
963.34	935.00
963.58	887.00
963.83	912.00
964.07	920.00
964.31	933.00
964.56	912.00
964.80	912.00
965.04	937.00
965.29	941.00
965.53	900.00
965.77	914.00
966.02	901.00
966.26	915.00
966.50	886.00
966.74	922.00
966.99	956.00
967.23	942.00
967.47	909.00
967.72	898.00
967.96	920.00
968.20	932.00
968.45	892.00
968.69	892.00
968.93	918.00
969.18	938.00
969.42	923.00
969.66	920.00
969.91	911.00
970.15	936.00
970.39	906.00
970.64	932.00
970.88	941.00
971.12	949.00
971.36	930.00
971.61	918.00
971.85	920.00
972.09	925.00
972.34	905.00
972.58	925.00
972.82	930.00
973.07	966.00
973.31	902.00
973.55	917.00
973.79	946.00
974.04	979.00
974.28	920.00
974.52	913.00
974.77	915.00
975.01	949.00
975.25	907.00
975.50	918.00
975.74	949.00
975.98	943.00
976.22	916.00
976.47	908.00
976.71	899.00
976.95	933.00
977.20	922.00
977.44	924.00
977.68	929.00
977.92	940.00
978.17	899.00
978.41	897.00
978.65	946.00
978.90	928.00
979.14	926.00
979.38	922.00
979.62	917.00
979.87	910.00
980.11	876.00
980.35	921.00
980.59	922.00
980.84	933.00
981.08	899.00
981.32	899.00
981.57	934.00
981.81	934.00
982.05	925.00
982.29	912.00
982.54	929.00
982.78	950.00
983.02	892.00
983.26	927.00
983.51	962.00
983.75	937.00
983.99	882.00
984.23	931.00
984.48	937.00
984.72	965.00
984.96	887.00
985.20	908.00
985.45	977.00
985.69	941.00
985.93	906.00
986.17	926.00
986.42	934.00
986.66	927.00
986.90	872.00
987.14	878.00
987.39	922.00
987.63	902.00
987.87	885.00
988.11	910.00
988.36	941.00
988.60	922.00
988.84	920.00
989.08	896.00
989.33	937.00
989.57	945.00
989.81	896.00
990.05	901.00
990.30	919.00
990.54	913.00
990.78	883.00
991.02	893.00
991.27	923.00
991.51	926.00
991.75	882.00
991.99	924.00
992.23	916.00
992.48	903.00
992.72	881.00
992.96	905.00
993.20	921.00
993.45	932.00
993.69	928.00
993.93	902.00
994.17	940.00
994.41	936.00
994.66	886.00
994.90	898.00
995.14	948.00
995.38	931.00
995.63	906.00
995.87	906.00
996.11	964.00
996.35	951.00
996.59	881.00
996.84	888.00
997.08	926.00
997.32	908.00
997.56	893.00
997.80	883.00
998.05	903.00
998.29	902.00
998.53	881.00
998.77	894.00
999.01	940.00
999.26	936.00
999.50	900.00
999.74	898.00
999.98	905.00
1000.22	932.00
1000.47	887.00
1000.71	886.00
1000.95	922.00
1001.19	920.00
1001.43	893.00
1001.68	925.00
1001.92	935.00
1002.16	923.00
1002.40	886.00
1002.64	893.00
1002.89	913.00
1003.13	932.00
1003.37	912.00
1003.61	897.00
1003.85	921.00
1004.10	924.00
1004.34	893.00
1004.58	887.00
1004.82	936.00
1005.06	944.00
1005.30	903.00
1005.55	891.00
1005.79	928.00
1006.03	935.00
1006.27	914.00
1006.51	923.00
1006.76	934.00
1007.00	944.00
1007.24	915.00
1007.48	931.00
1007.72	948.00
1007.96	925.00
1008.21	899.00
1008.45	906.00
1008.69	925.00
1008.93	950.00
1009.17	921.00
1009.41	954.00
1009.66	953.00
1009.90	929.00
1010.14	904.00
1010.38	922.00
1010.62	950.00
1010.86	938.00
1011.10	892.00
1011.35	899.00
1011.59	921.00
1011.83	890.00
1012.07	887.00
1012.31	917.00
1012.55	927.00
1012.80	927.00
1013.04	917.00
1013.28	918.00
1013.52	907.00
1013.76	949.00
1014.00	896.00
1014.24	921.00
1014.49	957.00
1014.73	970.00
1014.97	942.00
1015.21	919.00
1015.45	953.00
1015.69	921.00
1015.93	927.00
1016.18	925.00
1016.42	952.00
1016.66	953.00
1016.90	908.00
1017.14	892.00
1017.38	898.00
1017.62	925.00
1017.87	901.00
1018.11	903.00
1018.35	922.00
1018.59	933.00
1018.83	888.00
1019.07	909.00
1019.31	924.00
1019.55	937.00
1019.80	891.00
1020.04	905.00
1020.28	923.00
1020.52	939.00
1020.76	887.00
1021.00	876.00
1021.24	896.00
1021.48	907.00
1021.73	903.00
1021.97	930.00
1022.21	931.00
1022.45	948.00
1022.69	922.00
1022.93	893.00
1023.17	917.00
1023.41	951.00
1023.65	909.00
1023.90	928.00
1024.14	941.00
1024.38	912.00
1024.62	884.00
1024.86	902.00
1025.10	921.00
1025.34	919.00
1025.58	881.00
1025.82	901.00
1026.07	950.00
1026.31	956.00
1026.55	915.00
1026.79	901.00
1027.03	921.00
1027.27	928.00
1027.51	888.00
1027.75	884.00
1027.99	907.00
1028.23	948.00
1028.47	907.00
1028.72	883.00
1028.96	913.00
1029.20	924.00
1029.44	921.00
1029.68	921.00
1029.92	918.00
1030.16	922.00
1030.40	876.00
1030.64	885.00
1030.88	894.00
1031.12	882.00
1031.37	859.00
1031.61	898.00
1031.85	961.00
1032.09	941.00
1032.33	900.00
1032.57	960.00
1032.81	921.00
1033.05	954.00
1033.29	930.00
1033.53	899.00
1033.77	973.00
1034.01	968.00
1034.25	903.00
1034.50	915.00
1034.74	938.00
1034.98	960.00
1035.22	918.00
1035.46	913.00
1035.70	940.00
1035.94	942.00
1036.18	920.00
1036.42	916.00
1036.66	899.00
1036.90	910.00
1037.14	890.00
1037.38	900.00
1037.62	921.00
1037.86	922.00
1038.10	902.00
1038.35	896.00
1038.59	940.00
1038.83	950.00
1039.07	929.00
1039.31	932.00
1039.55	909.00
1039.79	916.00
1040.03	878.00
1040.27	879.00
1040.51	967.00
1040.75	959.00
1040.99	914.00
1041.23	927.00
1041.47	926.00
1041.71	941.00
1041.95	910.00
1042.19	904.00
1042.43	965.00
1042.67	968.00
1042.91	930.00
1043.15	918.00
1043.39	970.00
1043.64	945.00
1043.88	903.00
1044.12	921.00
1044.36	1000.00
1044.60	974.00
1044.84	924.00
1045.08	913.00
1045.32	936.00
1045.56	924.00
1045.80	908.00
1046.04	909.00
1046.28	948.00
1046.52	960.00
1046.76	888.00
1047.00	886.00
1047.24	937.00
1047.48	921.00
1047.72	898.00
1047.96	898.00
1048.20	919.00
1048.44	909.00
1048.68	893.00
1048.92	922.00
1049.16	941.00
1049.40	938.00
1049.64	913.00
1049.88	922.00
1050.12	961.00
1050.36	956.00
1050.60	921.00
1050.84	928.00
1051.08	919.00
1051.32	913.00
1051.56	905.00
1051.80	903.00
1052.04	928.00
1052.28	946.00
1052.52	897.00
1052.76	889.00
1053.00	922.00
1053.24	929.00
1053.48	888.00
1053.72	902.00
1053.96	928.00
1054.20	936.00
1054.44	909.00
1054.68	916.00
1054.92	939.00
1055.16	898.00
1055.40	889.00
1055.64	913.00
1055.88	939.00
1056.12	962.00
1056.36	881.00
1056.60	908.00
1056.84	952.00
1057.08	931.00
1057.32	900.00
1057.56	909.00
1057.80	924.00
1058.04	957.00
1058.28	896.00
1058.52	909.00
1058.76	926.00
1059.00	951.00
1059.24	880.00
1059.48	881.00
1059.72	935.00
1059.96	932.00
1060.20	921.00
1060.44	945.00
1060.68	951.00
1060.92	920.00
1061.16	872.00
1061.40	899.00
1061.64	917.00
1061.88	922.00
1062.11	896.00
1062.35	900.00
1062.59	897.00
1062.83	923.00
1063.07	916.00
1063.31	888.00
1063.55	907.00
1063.79	930.00
1064.03	908.00
1064.27	897.00
1064.51	943.00
1064.75	937.00
1064.99	910.00
1065.23	915.00
1065.47	899.00
1065.71	942.00
1065.95	917.00
1066.19	913.00
1066.43	945.00
1066.67	948.00
1066.91	932.00
1067.15	919.00
1067.38	909.00
1067.62	915.00
1067.86	885.00
1068.10	927.00
1068.34	955.00
1068.58	963.00
1068.82	901.00
1069.06	877.00
1069.30	929.00
1069.54	956.00
1069.78	938.00
1070.02	924.00
1070.26	936.00
1070.50	954.00
1070.74	899.00
1070.98	941.00
1071.21	938.00
1071.45	933.00
1071.69	901.00
1071.93	906.00
1072.17	921.00
1072.41	933.00
1072.65	918.00
1072.89	934.00
1073.13	932.00
1073.37	925.00
1073.61	909.00
1073.85	925.00
1074.09	904.00
1074.32	901.00
1074.56	904.00
1074.80	983.00
1075.04	1203.00
1075.28	1041.00
1075.52	926.00
1075.76	935.00
1076.00	941.00
1076.24	941.00
1076.48	940.00
1076.72	950.00
1076.96	953.00
1077.19	932.00
1077.43	899.00
1077.67	930.00
1077.91	938.00
1078.15	908.00
1078.39	910.00
1078.63	909.00
1078.87	914.00
1079.11	928.00
1079.35	891.00
1079.58	900.00
1079.82	913.00
1080.06	902.00
1080.30	883.00
1080.54	927.00
1080.78	957.00
1081.02	922.00
1081.26	902.00
1081.50	925.00
1081.74	930.00
1081.97	937.00
1082.21	903.00
1082.45	908.00
1082.69	913.00
1082.93	901.00
1083.17	918.00
1083.41	912.00
1083.65	948.00
1083.88	953.00
1084.12	919.00
1084.36	926.00
1084.60	943.00
1084.84	940.00
1085.08	888.00
1085.32	905.00
1085.56	947.00
1085.80	933.00
1086.03	914.00
1086.27	906.00
1086.51	927.00
1086.75	939.00
1086.99	898.00
1087.23	903.00
1087.47	934.00
1087.70	913.00
1087.94	910.00
1088.18	949.00
1088.42	973.00
1088.66	924.00
1088.90	883.00
1089.14	906.00
1089.38	935.00
1089.61	944.00
1089.85	909.00
1090.09	891.00
1090.33	949.00
1090.57	943.00
1090.81	884.00
1091.05	919.00
1091.28	934.00
1091.52	945.00
1091.76	918.00
1092.00	908.00
1092.24	952.00
1092.48	964.00
1092.71	902.00
1092.95	944.00
1093.19	940.00
1093.43	931.00
1093.67	891.00
1093.91	915.00
1094.15	935.00
1094.38	931.00
1094.62	898.00
1094.86	890.00
1095.10	920.00
1095.34	929.00
1095.58	901.00
1095.81	916.00
1096.05	956.00
1096.29	960.00
1096.53	883.00
1096.77	910.00
1097.01	921.00
1097.24	954.00
1097.48	892.00
1097.72	920.00
1097.96	940.00
1098.20	940.00
1098.44	894.00
1098.67	874.00
1098.91	935.00
1099.15	945.00
1099.39	900.00
1099.63	921.00
1099.86	944.00
1100.10	915.00
1100.34	906.00
1100.58	902.00
1100.82	914.00
1101.06	920.00
1101.29	886.00
1101.53	914.00
1101.77	949.00
1102.01	927.00
1102.25	902.00
1102.48	927.00
1102.72	969.00
1102.96	942.00
1103.20	873.00
1103.44	917.00
1103.67	923.00
1103.91	937.00
1104.15	883.00
1104.39	903.00
1104.63	927.00
1104.86	903.00
1105.10	893.00
1105.34	913.00
1105.58	925.00
1105.82	909.00
1106.05	904.00
1106.29	907.00
1106.53	924.00
1106.77	941.00
1107.01	900.00
1107.24	933.00
1107.48	975.00
1107.72	940.00
1107.96	883.00
1108.20	909.00
1108.43	944.00
1108.67	926.00
1108.91	914.00
1109.15	910.00
1109.39	925.00
1109.62	924.00
1109.86	870.00
1110.10	897.00
1110.34	968.00
1110.57	985.00
1110.81	904.00
1111.05	922.00
1111.29	971.00
1111.53	965.00
1111.76	920.00
1112.00	953.00
1112.24	959.00
1112.48	932.00
1112.71	899.00
1112.95	908.00
1113.19	958.00
1113.43	921.00
1113.66	884.00
1113.90	911.00
1114.14	922.00
1114.38	927.00
1114.62	884.00
1114.85	932.00
1115.09	937.00
1115.33	987.00
1115.57	913.00
1115.80	899.00
1116.04	923.00
1116.28	929.00
1116.52	898.00
1116.75	918.00
1116.99	960.00
1117.23	949.00
1117.47	925.00
1117.70	945.00
1117.94	969.00
1118.18	913.00
1118.42	904.00
1118.65	932.00
1118.89	953.00
1119.13	907.00
1119.37	887.00
1119.60	901.00
1119.84	940.00
>>>>>End Processed Spectral Data<<<<<
