SpectraSuite Data File
++++++++++++++++++++++++++++++++++++
Date: Fri Nov 29 15:23:23 CET 2024
User: student
Dark Spectrum Present: No
Reference Spectrum Present: No
Number of Sampled Component Spectra: 1
Spectrometers: HR4C155
Integration Time (usec): 100000 (HR4C155)
Spectra Averaged: 1 (HR4C155)
Boxcar Smoothing: 0 (HR4C155)
Correct for Electrical Dark: No (HR4C155)
Strobe/Lamp Enabled: No (HR4C155)
Correct for Detector Non-linearity: No (HR4C155)
Correct for Stray Light: No (HR4C155)
Number of Pixels in Processed Spectrum: 3648
>>>>>Begin Processed Spectral Data<<<<<
195.39	761.00
195.66	761.00
195.93	761.00
196.20	710.00
196.46	733.00
196.73	862.00
197.00	887.00
197.27	876.00
197.54	913.00
197.81	904.00
198.08	907.00
198.35	924.00
198.61	928.00
198.88	911.00
199.15	899.00
199.42	921.00
199.69	944.00
199.96	924.00
200.23	924.00
200.49	925.00
200.76	944.00
201.03	933.00
201.30	933.00
201.57	1005.00
201.84	996.00
202.11	933.00
202.38	964.00
202.64	966.00
202.91	978.00
203.18	904.00
203.45	983.00
203.72	1061.00
203.99	972.00
204.25	954.00
204.52	962.00
204.79	978.00
205.06	991.00
205.33	929.00
205.60	949.00
205.87	998.00
206.13	984.00
206.40	943.00
206.67	941.00
206.94	986.00
207.21	971.00
207.48	929.00
207.75	935.00
208.01	980.00
208.28	978.00
208.55	917.00
208.82	952.00
209.09	977.00
209.36	992.00
209.62	952.00
209.89	952.00
210.16	988.00
210.43	1005.00
210.70	918.00
210.97	941.00
211.23	994.00
211.50	1001.00
211.77	954.00
212.04	950.00
212.31	958.00
212.58	1009.00
212.84	948.00
213.11	942.00
213.38	927.00
213.65	956.00
213.92	938.00
214.18	949.00
214.45	996.00
214.72	994.00
214.99	942.00
215.26	967.00
215.53	950.00
215.79	986.00
216.06	965.00
216.33	957.00
216.60	952.00
216.87	988.00
217.13	913.00
217.40	923.00
217.67	965.00
217.94	995.00
218.21	929.00
218.48	977.00
218.74	1027.00
219.01	996.00
219.28	931.00
219.55	915.00
219.82	956.00
220.08	981.00
220.35	927.00
220.62	935.00
220.89	986.00
221.16	998.00
221.42	949.00
221.69	963.00
221.96	974.00
222.23	995.00
222.50	971.00
222.76	997.00
223.03	965.00
223.30	952.00
223.57	938.00
223.84	929.00
224.10	936.00
224.37	971.00
224.64	941.00
224.91	941.00
225.18	994.00
225.44	1005.00
225.71	941.00
225.98	969.00
226.25	992.00
226.51	1004.00
226.78	948.00
227.05	940.00
227.32	961.00
227.59	958.00
227.85	952.00
228.12	942.00
228.39	1000.00
228.66	1001.00
228.92	990.00
229.19	959.00
229.46	978.00
229.73	957.00
230.00	932.00
230.26	964.00
230.53	990.00
230.80	970.00
231.07	911.00
231.33	932.00
231.60	967.00
231.87	976.00
232.14	954.00
232.41	1000.00
232.67	969.00
232.94	977.00
233.21	928.00
233.48	955.00
233.74	975.00
234.01	984.00
234.28	939.00
234.55	951.00
234.81	950.00
235.08	992.00
235.35	928.00
235.62	945.00
235.88	963.00
236.15	993.00
236.42	972.00
236.69	954.00
236.95	981.00
237.22	959.00
237.49	937.00
237.76	940.00
238.02	1012.00
238.29	1009.00
238.56	927.00
238.83	951.00
239.09	967.00
239.36	999.00
239.63	943.00
239.90	945.00
240.16	992.00
240.43	1035.00
240.70	953.00
240.97	952.00
241.23	962.00
241.50	975.00
241.77	950.00
242.04	937.00
242.30	911.00
242.57	957.00
242.84	938.00
243.11	949.00
243.37	931.00
243.64	997.00
243.91	944.00
244.18	956.00
244.44	935.00
244.71	941.00
244.98	957.00
245.24	954.00
245.51	962.00
245.78	988.00
246.05	933.00
246.31	926.00
246.58	974.00
246.85	960.00
247.12	940.00
247.38	981.00
247.65	976.00
247.92	994.00
248.18	941.00
248.45	952.00
248.72	961.00
248.99	957.00
249.25	934.00
249.52	941.00
249.79	971.00
250.05	985.00
250.32	955.00
250.59	966.00
250.86	956.00
251.12	965.00
251.39	922.00
251.66	958.00
251.92	978.00
252.19	998.00
252.46	927.00
252.73	972.00
252.99	1001.00
253.26	1008.00
253.53	928.00
253.79	963.00
254.06	966.00
254.33	944.00
254.60	937.00
254.86	962.00
255.13	994.00
255.40	1000.00
255.66	946.00
255.93	959.00
256.20	976.00
256.46	976.00
256.73	948.00
257.00	961.00
257.26	979.00
257.53	978.00
257.80	960.00
258.07	977.00
258.33	1015.00
258.60	985.00
258.87	921.00
259.13	937.00
259.40	947.00
259.67	996.00
259.93	975.00
260.20	977.00
260.47	980.00
260.73	941.00
261.00	927.00
261.27	961.00
261.53	986.00
261.80	970.00
262.07	908.00
262.34	943.00
262.60	935.00
262.87	968.00
263.14	937.00
263.40	964.00
263.67	957.00
263.94	967.00
264.20	933.00
264.47	937.00
264.74	926.00
265.00	934.00
265.27	910.00
265.54	946.00
265.80	987.00
266.07	983.00
266.34	921.00
266.60	946.00
266.87	966.00
267.14	994.00
267.40	928.00
267.67	919.00
267.94	970.00
268.20	950.00
268.47	910.00
268.74	907.00
269.00	938.00
269.27	931.00
269.54	891.00
269.80	910.00
270.07	967.00
270.33	958.00
270.60	940.00
270.87	958.00
271.13	947.00
271.40	968.00
271.67	906.00
271.93	912.00
272.20	958.00
272.47	948.00
272.73	902.00
273.00	938.00
273.27	963.00
273.53	998.00
273.80	934.00
274.07	913.00
274.33	934.00
274.60	976.00
274.86	947.00
275.13	939.00
275.40	947.00
275.66	990.00
275.93	927.00
276.20	922.00
276.46	950.00
276.73	951.00
277.00	941.00
277.26	955.00
277.53	974.00
277.79	962.00
278.06	934.00
278.33	1000.00
278.59	978.00
278.86	951.00
279.13	944.00
279.39	956.00
279.66	980.00
279.93	983.00
280.19	925.00
280.46	940.00
280.72	953.00
280.99	971.00
281.26	919.00
281.52	931.00
281.79	953.00
282.05	973.00
282.32	941.00
282.59	950.00
282.85	985.00
283.12	987.00
283.39	962.00
283.65	966.00
283.92	978.00
284.18	989.00
284.45	944.00
284.72	962.00
284.98	957.00
285.25	941.00
285.51	963.00
285.78	963.00
286.05	943.00
286.31	965.00
286.58	923.00
286.84	931.00
287.11	950.00
287.38	977.00
287.64	966.00
287.91	940.00
288.17	965.00
288.44	945.00
288.71	906.00
288.97	955.00
289.24	990.00
289.50	949.00
289.77	941.00
290.04	919.00
290.30	943.00
290.57	988.00
290.83	908.00
291.10	921.00
291.37	952.00
291.63	959.00
291.90	967.00
292.16	949.00
292.43	963.00
292.70	942.00
292.96	894.00
293.23	916.00
293.49	940.00
293.76	958.00
294.02	934.00
294.29	940.00
294.56	970.00
294.82	965.00
295.09	940.00
295.35	926.00
295.62	991.00
295.89	983.00
296.15	921.00
296.42	917.00
296.68	941.00
296.95	957.00
297.21	944.00
297.48	935.00
297.75	954.00
298.01	1003.00
298.28	928.00
298.54	964.00
298.81	975.00
299.07	983.00
299.34	924.00
299.61	951.00
299.87	990.00
300.14	964.00
300.40	962.00
300.67	946.00
300.93	963.00
301.20	1010.00
301.46	945.00
301.73	943.00
302.00	965.00
302.26	944.00
302.53	956.00
302.79	941.00
303.06	973.00
303.32	1003.00
303.59	925.00
303.85	914.00
304.12	942.00
304.39	947.00
304.65	921.00
304.92	930.00
305.18	954.00
305.45	980.00
305.71	950.00
305.98	934.00
306.24	940.00
306.51	937.00
306.77	930.00
307.04	950.00
307.31	977.00
307.57	984.00
307.84	917.00
308.10	930.00
308.37	933.00
308.63	940.00
308.90	940.00
309.16	970.00
309.43	983.00
309.69	945.00
309.96	938.00
310.22	954.00
310.49	955.00
310.76	955.00
311.02	920.00
311.29	934.00
311.55	937.00
311.82	936.00
312.08	951.00
312.35	953.00
312.61	985.00
312.88	987.00
313.14	923.00
313.41	930.00
313.67	932.00
313.94	947.00
314.20	920.00
314.47	946.00
314.73	949.00
315.00	945.00
315.26	911.00
315.53	956.00
315.79	971.00
316.06	965.00
316.32	950.00
316.59	949.00
316.85	954.00
317.12	963.00
317.39	918.00
317.65	931.00
317.92	947.00
318.18	964.00
318.45	925.00
318.71	976.00
318.98	984.00
319.24	967.00
319.51	937.00
319.77	950.00
320.04	958.00
320.30	960.00
320.57	933.00
320.83	942.00
321.10	937.00
321.36	945.00
321.63	921.00
321.89	931.00
322.16	986.00
322.42	975.00
322.69	927.00
322.95	923.00
323.22	962.00
323.48	990.00
323.75	926.00
324.01	955.00
324.28	966.00
324.54	971.00
324.80	934.00
325.07	965.00
325.33	974.00
325.60	953.00
325.86	920.00
326.13	944.00
326.39	948.00
326.66	942.00
326.92	876.00
327.19	916.00
327.45	985.00
327.72	995.00
327.98	938.00
328.25	930.00
328.51	964.00
328.78	965.00
329.04	937.00
329.31	946.00
329.57	957.00
329.84	959.00
330.10	917.00
330.37	943.00
330.63	990.00
330.89	997.00
331.16	925.00
331.42	936.00
331.69	970.00
331.95	949.00
332.22	945.00
332.48	982.00
332.75	972.00
333.01	946.00
333.28	928.00
333.54	939.00
333.81	956.00
334.07	969.00
334.34	943.00
334.60	963.00
334.86	995.00
335.13	979.00
335.39	934.00
335.66	931.00
335.92	969.00
336.19	967.00
336.45	900.00
336.72	917.00
336.98	922.00
337.24	957.00
337.51	895.00
337.77	918.00
338.04	939.00
338.30	950.00
338.57	928.00
338.83	932.00
339.10	961.00
339.36	957.00
339.63	935.00
339.89	916.00
340.15	947.00
340.42	971.00
340.68	954.00
340.95	949.00
341.21	945.00
341.48	962.00
341.74	920.00
342.00	917.00
342.27	963.00
342.53	958.00
342.80	928.00
343.06	934.00
343.33	937.00
343.59	969.00
343.85	938.00
344.12	927.00
344.38	1001.00
344.65	1000.00
344.91	935.00
345.18	933.00
345.44	943.00
345.70	942.00
345.97	895.00
346.23	932.00
346.50	974.00
346.76	948.00
347.03	930.00
347.29	934.00
347.55	930.00
347.82	944.00
348.08	908.00
348.35	928.00
348.61	1017.00
348.87	988.00
349.14	909.00
349.40	923.00
349.67	963.00
349.93	949.00
350.20	939.00
350.46	956.00
350.72	989.00
350.99	942.00
351.25	926.00
351.52	940.00
351.78	960.00
352.04	983.00
352.31	947.00
352.57	942.00
352.84	943.00
353.10	957.00
353.36	931.00
353.63	924.00
353.89	945.00
354.16	983.00
354.42	962.00
354.68	959.00
354.95	993.00
355.21	974.00
355.48	916.00
355.74	956.00
356.00	983.00
356.27	989.00
356.53	924.00
356.80	919.00
357.06	970.00
357.32	974.00
357.59	944.00
357.85	945.00
358.11	1002.00
358.38	987.00
358.64	946.00
358.91	940.00
359.17	957.00
359.43	980.00
359.70	946.00
359.96	941.00
360.22	973.00
360.49	953.00
360.75	954.00
361.02	929.00
361.28	929.00
361.54	952.00
361.81	907.00
362.07	931.00
362.33	933.00
362.60	952.00
362.86	921.00
363.13	937.00
363.39	974.00
363.65	978.00
363.92	886.00
364.18	906.00
364.44	959.00
364.71	979.00
364.97	936.00
365.24	930.00
365.50	970.00
365.76	977.00
366.03	937.00
366.29	972.00
366.55	984.00
366.82	953.00
367.08	904.00
367.34	936.00
367.61	974.00
367.87	965.00
368.13	947.00
368.40	942.00
368.66	1004.00
368.93	968.00
369.19	894.00
369.45	925.00
369.72	948.00
369.98	924.00
370.24	889.00
370.51	905.00
370.77	968.00
371.03	969.00
371.30	942.00
371.56	956.00
371.82	983.00
372.09	970.00
372.35	944.00
372.61	945.00
372.88	951.00
373.14	965.00
373.40	953.00
373.67	934.00
373.93	958.00
374.19	972.00
374.46	937.00
374.72	919.00
374.98	965.00
375.25	979.00
375.51	947.00
375.77	957.00
376.04	976.00
376.30	983.00
376.56	903.00
376.83	932.00
377.09	948.00
377.35	963.00
377.62	935.00
377.88	937.00
378.14	947.00
378.41	962.00
378.67	923.00
378.93	926.00
379.20	964.00
379.46	956.00
379.72	919.00
379.99	917.00
380.25	922.00
380.51	926.00
380.77	922.00
381.04	933.00
381.30	971.00
381.56	985.00
381.83	945.00
382.09	938.00
382.35	944.00
382.62	945.00
382.88	935.00
383.14	936.00
383.41	944.00
383.67	953.00
383.93	945.00
384.20	932.00
384.46	945.00
384.72	976.00
384.98	922.00
385.25	934.00
385.51	968.00
385.77	962.00
386.04	920.00
386.30	914.00
386.56	977.00
386.82	1016.00
387.09	935.00
387.35	951.00
387.61	1031.00
387.88	986.00
388.14	949.00
388.40	958.00
388.67	958.00
388.93	938.00
389.19	917.00
389.45	916.00
389.72	951.00
389.98	960.00
390.24	931.00
390.51	917.00
390.77	970.00
391.03	969.00
391.29	919.00
391.56	932.00
391.82	955.00
392.08	982.00
392.35	930.00
392.61	941.00
392.87	962.00
393.13	988.00
393.40	928.00
393.66	934.00
393.92	972.00
394.18	969.00
394.45	919.00
394.71	912.00
394.97	931.00
395.24	929.00
395.50	905.00
395.76	939.00
396.02	966.00
396.29	965.00
396.55	906.00
396.81	884.00
397.07	931.00
397.34	919.00
397.60	914.00
397.86	925.00
398.12	935.00
398.39	969.00
398.65	907.00
398.91	932.00
399.17	968.00
399.44	919.00
399.70	857.00
399.96	903.00
400.22	920.00
400.49	969.00
400.75	939.00
401.01	925.00
401.27	941.00
401.54	969.00
401.80	942.00
402.06	910.00
402.32	940.00
402.59	931.00
402.85	896.00
403.11	917.00
403.37	928.00
403.64	973.00
403.90	918.00
404.16	923.00
404.42	940.00
404.69	924.00
404.95	904.00
405.21	899.00
405.47	935.00
405.74	964.00
406.00	922.00
406.26	928.00
406.52	933.00
406.79	961.00
407.05	926.00
407.31	940.00
407.57	951.00
407.83	958.00
408.10	915.00
408.36	918.00
408.62	944.00
408.88	945.00
409.15	914.00
409.41	890.00
409.67	934.00
409.93	961.00
410.20	949.00
410.46	926.00
410.72	923.00
410.98	945.00
411.24	933.00
411.51	938.00
411.77	933.00
412.03	941.00
412.29	945.00
412.55	958.00
412.82	924.00
413.08	947.00
413.34	932.00
413.60	931.00
413.87	946.00
414.13	966.00
414.39	910.00
414.65	930.00
414.91	954.00
415.18	937.00
415.44	904.00
415.70	893.00
415.96	937.00
416.22	949.00
416.49	914.00
416.75	929.00
417.01	962.00
417.27	960.00
417.53	948.00
417.80	942.00
418.06	969.00
418.32	970.00
418.58	922.00
418.84	912.00
419.11	950.00
419.37	967.00
419.63	920.00
419.89	914.00
420.15	946.00
420.42	941.00
420.68	910.00
420.94	933.00
421.20	943.00
421.46	963.00
421.72	960.00
421.99	954.00
422.25	949.00
422.51	968.00
422.77	936.00
423.03	948.00
423.30	943.00
423.56	969.00
423.82	954.00
424.08	978.00
424.34	986.00
424.60	955.00
424.87	929.00
425.13	914.00
425.39	916.00
425.65	948.00
425.91	914.00
426.18	941.00
426.44	967.00
426.70	917.00
426.96	883.00
427.22	907.00
427.48	920.00
427.75	934.00
428.01	896.00
428.27	935.00
428.53	966.00
428.79	926.00
429.05	901.00
429.32	941.00
429.58	997.00
429.84	941.00
430.10	943.00
430.36	942.00
430.62	976.00
430.88	949.00
431.15	924.00
431.41	941.00
431.67	970.00
431.93	938.00
432.19	894.00
432.45	924.00
432.72	965.00
432.98	943.00
433.24	947.00
433.50	1026.00
433.76	946.00
434.02	938.00
434.28	909.00
434.55	941.00
434.81	958.00
435.07	954.00
435.33	896.00
435.59	914.00
435.85	935.00
436.11	951.00
436.38	898.00
436.64	921.00
436.90	927.00
437.16	931.00
437.42	923.00
437.68	927.00
437.94	950.00
438.21	964.00
438.47	950.00
438.73	947.00
438.99	954.00
439.25	957.00
439.51	915.00
439.77	924.00
440.03	928.00
440.30	929.00
440.56	928.00
440.82	961.00
441.08	972.00
441.34	947.00
441.60	898.00
441.86	936.00
442.12	956.00
442.39	951.00
442.65	910.00
442.91	930.00
443.17	946.00
443.43	966.00
443.69	955.00
443.95	906.00
444.21	924.00
444.47	956.00
444.74	901.00
445.00	922.00
445.26	930.00
445.52	948.00
445.78	915.00
446.04	916.00
446.30	974.00
446.56	957.00
446.82	902.00
447.09	933.00
447.35	957.00
447.61	952.00
447.87	920.00
448.13	919.00
448.39	982.00
448.65	981.00
448.91	922.00
449.17	916.00
449.43	926.00
449.70	928.00
449.96	886.00
450.22	906.00
450.48	943.00
450.74	990.00
451.00	921.00
451.26	917.00
451.52	934.00
451.78	940.00
452.04	890.00
452.31	938.00
452.57	968.00
452.83	918.00
453.09	913.00
453.35	913.00
453.61	932.00
453.87	946.00
454.13	938.00
454.39	938.00
454.65	981.00
454.91	977.00
455.17	909.00
455.44	924.00
455.70	958.00
455.96	940.00
456.22	912.00
456.48	934.00
456.74	955.00
457.00	902.00
457.26	859.00
457.52	920.00
457.78	931.00
458.04	955.00
458.30	900.00
458.56	917.00
458.82	929.00
459.09	938.00
459.35	878.00
459.61	896.00
459.87	947.00
460.13	969.00
460.39	925.00
460.65	899.00
460.91	963.00
461.17	930.00
461.43	883.00
461.69	913.00
461.95	946.00
462.21	937.00
462.47	925.00
462.73	948.00
462.99	963.00
463.26	953.00
463.52	894.00
463.78	882.00
464.04	908.00
464.30	934.00
464.56	912.00
464.82	926.00
465.08	970.00
465.34	982.00
465.60	942.00
465.86	944.00
466.12	942.00
466.38	923.00
466.64	914.00
466.90	933.00
467.16	952.00
467.42	959.00
467.68	901.00
467.94	925.00
468.20	970.00
468.46	947.00
468.72	918.00
468.98	926.00
469.25	953.00
469.51	908.00
469.77	944.00
470.03	945.00
470.29	947.00
470.55	953.00
470.81	926.00
471.07	945.00
471.33	961.00
471.59	972.00
471.85	921.00
472.11	937.00
472.37	968.00
472.63	939.00
472.89	936.00
473.15	911.00
473.41	932.00
473.67	943.00
473.93	893.00
474.19	889.00
474.45	905.00
474.71	932.00
474.97	897.00
475.23	906.00
475.49	916.00
475.75	903.00
476.01	921.00
476.27	941.00
476.53	965.00
476.79	979.00
477.05	932.00
477.31	914.00
477.57	949.00
477.83	944.00
478.09	907.00
478.35	935.00
478.61	984.00
478.87	949.00
479.13	906.00
479.39	953.00
479.65	959.00
479.91	942.00
480.17	915.00
480.43	966.00
480.69	937.00
480.95	939.00
481.21	908.00
481.47	929.00
481.73	944.00
481.99	927.00
482.25	892.00
482.51	893.00
482.77	952.00
483.03	934.00
483.29	936.00
483.55	931.00
483.81	964.00
484.07	950.00
484.33	908.00
484.59	910.00
484.85	966.00
485.11	954.00
485.37	918.00
485.63	927.00
485.89	944.00
486.15	926.00
486.41	908.00
486.67	927.00
486.93	941.00
487.19	935.00
487.45	917.00
487.71	910.00
487.97	948.00
488.23	966.00
488.49	912.00
488.75	913.00
489.01	958.00
489.27	974.00
489.53	917.00
489.79	925.00
490.05	950.00
490.31	972.00
490.57	943.00
490.83	968.00
491.08	925.00
491.34	916.00
491.60	920.00
491.86	931.00
492.12	970.00
492.38	977.00
492.64	901.00
492.90	913.00
493.16	963.00
493.42	919.00
493.68	892.00
493.94	917.00
494.20	911.00
494.46	933.00
494.72	892.00
494.98	906.00
495.24	921.00
495.50	946.00
495.76	929.00
496.02	942.00
496.28	957.00
496.54	964.00
496.80	918.00
497.05	887.00
497.31	956.00
497.57	965.00
497.83	921.00
498.09	951.00
498.35	980.00
498.61	961.00
498.87	948.00
499.13	938.00
499.39	955.00
499.65	933.00
499.91	920.00
500.17	901.00
500.43	995.00
500.69	1010.00
500.95	909.00
501.20	931.00
501.46	960.00
501.72	962.00
501.98	947.00
502.24	936.00
502.50	983.00
502.76	946.00
503.02	935.00
503.28	940.00
503.54	991.00
503.80	998.00
504.06	957.00
504.32	959.00
504.58	956.00
504.83	928.00
505.09	899.00
505.35	935.00
505.61	926.00
505.87	939.00
506.13	931.00
506.39	933.00
506.65	973.00
506.91	977.00
507.17	940.00
507.43	929.00
507.68	943.00
507.94	976.00
508.20	915.00
508.46	905.00
508.72	969.00
508.98	981.00
509.24	926.00
509.50	951.00
509.76	930.00
510.02	945.00
510.28	917.00
510.53	933.00
510.79	943.00
511.05	947.00
511.31	910.00
511.57	921.00
511.83	934.00
512.09	954.00
512.35	925.00
512.61	938.00
512.87	957.00
513.12	961.00
513.38	905.00
513.64	931.00
513.90	941.00
514.16	975.00
514.42	916.00
514.68	935.00
514.94	962.00
515.20	962.00
515.45	929.00
515.71	931.00
515.97	954.00
516.23	931.00
516.49	912.00
516.75	930.00
517.01	944.00
517.27	931.00
517.53	906.00
517.78	935.00
518.04	948.00
518.30	911.00
518.56	889.00
518.82	934.00
519.08	957.00
519.34	923.00
519.60	908.00
519.85	937.00
520.11	926.00
520.37	948.00
520.63	944.00
520.89	939.00
521.15	956.00
521.41	937.00
521.66	925.00
521.92	931.00
522.18	972.00
522.44	975.00
522.70	922.00
522.96	887.00
523.22	949.00
523.48	955.00
523.73	932.00
523.99	917.00
524.25	987.00
524.51	967.00
524.77	921.00
525.03	908.00
525.29	941.00
525.54	954.00
525.80	916.00
526.06	919.00
526.32	927.00
526.58	934.00
526.84	918.00
527.09	908.00
527.35	913.00
527.61	916.00
527.87	907.00
528.13	937.00
528.39	935.00
528.65	939.00
528.90	899.00
529.16	911.00
529.42	909.00
529.68	924.00
529.94	910.00
530.20	936.00
530.45	927.00
530.71	936.00
530.97	910.00
531.23	936.00
531.49	956.00
531.75	933.00
532.00	922.00
532.26	922.00
532.52	951.00
532.78	926.00
533.04	888.00
533.30	904.00
533.55	932.00
533.81	938.00
534.07	898.00
534.33	901.00
534.59	953.00
534.85	961.00
535.10	918.00
535.36	906.00
535.62	936.00
535.88	928.00
536.14	876.00
536.39	899.00
536.65	956.00
536.91	969.00
537.17	913.00
537.43	923.00
537.69	973.00
537.94	937.00
538.20	890.00
538.46	908.00
538.72	933.00
538.98	941.00
539.23	896.00
539.49	917.00
539.75	965.00
540.01	964.00
540.27	913.00
540.52	955.00
540.78	949.00
541.04	942.00
541.30	889.00
541.56	879.00
541.81	968.00
542.07	988.00
542.33	913.00
542.59	923.00
542.85	933.00
543.10	941.00
543.36	897.00
543.62	930.00
543.88	934.00
544.14	936.00
544.39	916.00
544.65	924.00
544.91	979.00
545.17	960.00
545.43	929.00
545.68	916.00
545.94	928.00
546.20	944.00
546.46	915.00
546.71	922.00
546.97	936.00
547.23	941.00
547.49	915.00
547.75	902.00
548.00	945.00
548.26	961.00
548.52	914.00
548.78	912.00
549.03	937.00
549.29	936.00
549.55	888.00
549.81	929.00
550.07	946.00
550.32	938.00
550.58	886.00
550.84	936.00
551.10	926.00
551.35	936.00
551.61	912.00
551.87	940.00
552.13	957.00
552.39	933.00
552.64	893.00
552.90	903.00
553.16	933.00
553.42	934.00
553.67	897.00
553.93	908.00
554.19	937.00
554.45	966.00
554.70	920.00
554.96	886.00
555.22	935.00
555.48	957.00
555.73	917.00
555.99	927.00
556.25	942.00
556.51	934.00
556.76	911.00
557.02	926.00
557.28	951.00
557.54	930.00
557.79	915.00
558.05	937.00
558.31	924.00
558.57	934.00
558.82	897.00
559.08	886.00
559.34	905.00
559.60	946.00
559.85	916.00
560.11	930.00
560.37	927.00
560.63	932.00
560.88	911.00
561.14	901.00
561.40	950.00
561.66	924.00
561.91	903.00
562.17	918.00
562.43	946.00
562.68	962.00
562.94	932.00
563.20	946.00
563.46	964.00
563.71	980.00
563.97	910.00
564.23	910.00
564.49	945.00
564.74	928.00
565.00	894.00
565.26	929.00
565.51	931.00
565.77	923.00
566.03	890.00
566.29	922.00
566.54	909.00
566.80	928.00
567.06	899.00
567.31	936.00
567.57	959.00
567.83	934.00
568.09	914.00
568.34	896.00
568.60	919.00
568.86	965.00
569.11	941.00
569.37	914.00
569.63	940.00
569.89	948.00
570.14	884.00
570.40	919.00
570.66	921.00
570.91	934.00
571.17	907.00
571.43	940.00
571.69	968.00
571.94	980.00
572.20	921.00
572.46	919.00
572.71	964.00
572.97	947.00
573.23	901.00
573.48	898.00
573.74	929.00
574.00	942.00
574.26	893.00
574.51	933.00
574.77	970.00
575.03	954.00
575.28	918.00
575.54	909.00
575.80	923.00
576.05	938.00
576.31	887.00
576.57	904.00
576.82	934.00
577.08	930.00
577.34	891.00
577.59	912.00
577.85	966.00
578.11	937.00
578.37	921.00
578.62	925.00
578.88	964.00
579.14	982.00
579.39	928.00
579.65	920.00
579.91	934.00
580.16	951.00
580.42	917.00
580.68	925.00
580.93	940.00
581.19	930.00
581.45	900.00
581.70	930.00
581.96	950.00
582.22	970.00
582.47	936.00
582.73	944.00
582.99	969.00
583.24	952.00
583.50	884.00
583.76	905.00
584.01	944.00
584.27	968.00
584.53	927.00
584.78	936.00
585.04	923.00
585.30	956.00
585.55	929.00
585.81	907.00
586.07	960.00
586.32	974.00
586.58	923.00
586.83	922.00
587.09	954.00
587.35	949.00
587.60	915.00
587.86	918.00
588.12	927.00
588.37	954.00
588.63	908.00
588.89	923.00
589.14	949.00
589.40	948.00
589.66	908.00
589.91	918.00
590.17	932.00
590.43	894.00
590.68	901.00
590.94	923.00
591.19	932.00
591.45	935.00
591.71	914.00
591.96	918.00
592.22	933.00
592.48	957.00
592.73	897.00
592.99	915.00
593.25	941.00
593.50	953.00
593.76	914.00
594.01	913.00
594.27	946.00
594.53	958.00
594.78	923.00
595.04	933.00
595.30	945.00
595.55	953.00
595.81	909.00
596.06	920.00
596.32	953.00
596.58	951.00
596.83	928.00
597.09	969.00
597.35	972.00
597.60	931.00
597.86	901.00
598.11	919.00
598.37	982.00
598.63	964.00
598.88	916.00
599.14	912.00
599.39	958.00
599.65	938.00
599.91	905.00
600.16	922.00
600.42	949.00
600.67	977.00
600.93	913.00
601.19	942.00
601.44	1011.00
601.70	977.00
601.95	941.00
602.21	964.00
602.47	965.00
602.72	962.00
602.98	926.00
603.23	938.00
603.49	964.00
603.75	987.00
604.00	927.00
604.26	931.00
604.51	945.00
604.77	974.00
605.03	924.00
605.28	930.00
605.54	983.00
605.79	1009.00
606.05	930.00
606.31	945.00
606.56	979.00
606.82	1002.00
607.07	956.00
607.33	986.00
607.59	976.00
607.84	980.00
608.10	920.00
608.35	937.00
608.61	986.00
608.86	995.00
609.12	954.00
609.38	986.00
609.63	997.00
609.89	990.00
610.14	932.00
610.40	964.00
610.65	980.00
610.91	974.00
611.17	960.00
611.42	967.00
611.68	1010.00
611.93	1025.00
612.19	980.00
612.44	1000.00
612.70	1009.00
612.96	973.00
613.21	976.00
613.47	957.00
613.72	985.00
613.98	1013.00
614.23	976.00
614.49	997.00
614.75	1023.00
615.00	1009.00
615.26	981.00
615.51	972.00
615.77	1013.00
616.02	1036.00
616.28	990.00
616.53	1012.00
616.79	1037.00
617.05	1004.00
617.30	986.00
617.56	1025.00
617.81	1060.00
618.07	1056.00
618.32	1007.00
618.58	1049.00
618.83	1070.00
619.09	1091.00
619.34	1035.00
619.60	1036.00
619.86	1095.00
620.11	1123.00
620.37	1086.00
620.62	1071.00
620.88	1078.00
621.13	1111.00
621.39	1085.00
621.64	1076.00
621.90	1117.00
622.15	1101.00
622.41	1073.00
622.66	1101.00
622.92	1157.00
623.18	1171.00
623.43	1155.00
623.69	1164.00
623.94	1188.00
624.20	1222.00
624.45	1210.00
624.71	1224.00
624.96	1208.00
625.22	1250.00
625.47	1216.00
625.73	1265.00
625.98	1309.00
626.24	1302.00
626.49	1260.00
626.75	1300.00
627.00	1390.00
627.26	1409.00
627.51	1388.00
627.77	1394.00
628.02	1412.00
628.28	1407.00
628.53	1363.00
628.79	1416.00
629.05	1429.00
629.30	1433.00
629.56	1446.00
629.81	1522.00
630.07	1576.00
630.32	1534.00
630.58	1525.00
630.83	1622.00
631.09	1660.00
631.34	1641.00
631.60	1597.00
631.85	1622.00
632.11	1723.00
632.36	1838.00
632.62	1863.00
632.87	1855.00
633.13	1859.00
633.38	1907.00
633.64	1876.00
633.89	1929.00
634.15	1992.00
634.40	1925.00
634.66	1883.00
634.91	1953.00
635.17	2017.00
635.42	2138.00
635.68	2137.00
635.93	2122.00
636.18	2208.00
636.44	2318.00
636.69	2343.00
636.95	2185.00
637.20	2154.00
637.46	2247.00
637.71	2404.00
637.97	2465.00
638.22	2478.00
638.48	2517.00
638.73	2480.00
638.99	2433.00
639.24	2465.00
639.50	2444.00
639.75	2314.00
640.01	2312.00
640.26	2311.00
640.52	2352.00
640.77	2447.00
641.03	2517.00
641.28	2511.00
641.54	2509.00
641.79	2571.00
642.04	2497.00
642.30	2281.00
642.55	2274.00
642.81	2330.00
643.06	2325.00
643.32	2241.00
643.57	2160.00
643.83	2194.00
644.08	2231.00
644.34	2179.00
644.59	2056.00
644.85	1923.00
645.10	1913.00
645.35	1994.00
645.61	1890.00
645.86	1852.00
646.12	1852.00
646.37	1825.00
646.63	1819.00
646.88	1724.00
647.14	1699.00
647.39	1705.00
647.65	1666.00
647.90	1550.00
648.15	1596.00
648.41	1683.00
648.66	1645.00
648.92	1530.00
649.17	1486.00
649.43	1415.00
649.68	1389.00
649.94	1385.00
650.19	1416.00
650.44	1398.00
650.70	1360.00
650.95	1294.00
651.21	1296.00
651.46	1300.00
651.72	1262.00
651.97	1174.00
652.23	1210.00
652.48	1254.00
652.73	1246.00
652.99	1163.00
653.24	1161.00
653.50	1147.00
653.75	1159.00
654.01	1141.00
654.26	1139.00
654.51	1140.00
654.77	1109.00
655.02	1080.00
655.28	1037.00
655.53	1042.00
655.79	1071.00
656.04	1067.00
656.29	1047.00
656.55	1041.00
656.80	1058.00
657.06	1030.00
657.31	1028.00
657.56	1040.00
657.82	1025.00
658.07	1015.00
658.33	1024.00
658.58	1009.00
658.84	1035.00
659.09	979.00
659.34	992.00
659.60	1013.00
659.85	1005.00
660.11	998.00
660.36	983.00
660.61	995.00
660.87	962.00
661.12	950.00
661.38	967.00
661.63	985.00
661.88	997.00
662.14	976.00
662.39	978.00
662.65	996.00
662.90	1018.00
663.15	942.00
663.41	960.00
663.66	998.00
663.92	1007.00
664.17	950.00
664.42	962.00
664.68	1004.00
664.93	983.00
665.19	924.00
665.44	933.00
665.69	937.00
665.95	979.00
666.20	922.00
666.45	958.00
666.71	978.00
666.96	962.00
667.22	907.00
667.47	929.00
667.72	942.00
667.98	958.00
668.23	929.00
668.49	964.00
668.74	989.00
668.99	971.00
669.25	927.00
669.50	941.00
669.75	945.00
670.01	953.00
670.26	882.00
670.52	918.00
670.77	961.00
671.02	943.00
671.28	914.00
671.53	945.00
671.78	960.00
672.04	961.00
672.29	927.00
672.54	932.00
672.80	948.00
673.05	956.00
673.31	907.00
673.56	949.00
673.81	988.00
674.07	973.00
674.32	929.00
674.57	928.00
674.83	922.00
675.08	962.00
675.33	931.00
675.59	952.00
675.84	964.00
676.09	950.00
676.35	942.00
676.60	966.00
676.86	951.00
677.11	967.00
677.36	929.00
677.62	940.00
677.87	972.00
678.12	985.00
678.38	905.00
678.63	924.00
678.88	970.00
679.14	965.00
679.39	883.00
679.64	930.00
679.90	928.00
680.15	948.00
680.40	927.00
680.66	907.00
680.91	925.00
681.16	940.00
681.42	908.00
681.67	911.00
681.92	937.00
682.18	962.00
682.43	906.00
682.68	894.00
682.94	926.00
683.19	915.00
683.44	897.00
683.70	942.00
683.95	930.00
684.20	929.00
684.46	932.00
684.71	936.00
684.96	945.00
685.22	972.00
685.47	933.00
685.72	941.00
685.98	960.00
686.23	889.00
686.48	895.00
686.74	949.00
686.99	988.00
687.24	947.00
687.50	894.00
687.75	914.00
688.00	931.00
688.25	950.00
688.51	920.00
688.76	936.00
689.01	917.00
689.27	934.00
689.52	898.00
689.77	918.00
690.03	913.00
690.28	919.00
690.53	906.00
690.79	946.00
691.04	955.00
691.29	958.00
691.54	890.00
691.80	914.00
692.05	937.00
692.30	942.00
692.56	905.00
692.81	920.00
693.06	908.00
693.32	920.00
693.57	898.00
693.82	927.00
694.07	936.00
694.33	927.00
694.58	889.00
694.83	932.00
695.09	921.00
695.34	964.00
695.59	923.00
695.84	929.00
696.10	951.00
696.35	947.00
696.60	886.00
696.86	904.00
697.11	941.00
697.36	931.00
697.61	886.00
697.87	912.00
698.12	917.00
698.37	936.00
698.63	934.00
698.88	906.00
699.13	934.00
699.38	929.00
699.64	898.00
699.89	912.00
700.14	911.00
700.39	916.00
700.65	920.00
700.90	956.00
701.15	955.00
701.40	951.00
701.66	919.00
701.91	916.00
702.16	905.00
702.42	915.00
702.67	867.00
702.92	897.00
703.17	914.00
703.43	943.00
703.68	917.00
703.93	946.00
704.18	968.00
704.44	938.00
704.69	921.00
704.94	935.00
705.19	921.00
705.45	951.00
705.70	931.00
705.95	904.00
706.20	930.00
706.46	956.00
706.71	930.00
706.96	925.00
707.21	912.00
707.47	926.00
707.72	910.00
707.97	917.00
708.22	953.00
708.48	971.00
708.73	911.00
708.98	896.00
709.23	923.00
709.49	932.00
709.74	890.00
709.99	893.00
710.24	933.00
710.50	945.00
710.75	921.00
711.00	941.00
711.25	932.00
711.50	933.00
711.76	919.00
712.01	920.00
712.26	927.00
712.51	934.00
712.77	904.00
713.02	914.00
713.27	915.00
713.52	924.00
713.78	922.00
714.03	911.00
714.28	915.00
714.53	937.00
714.78	916.00
715.04	942.00
715.29	946.00
715.54	956.00
715.79	910.00
716.05	929.00
716.30	950.00
716.55	956.00
716.80	921.00
717.05	933.00
717.31	954.00
717.56	958.00
717.81	918.00
718.06	883.00
718.31	912.00
718.57	933.00
718.82	911.00
719.07	949.00
719.32	917.00
719.57	936.00
719.83	900.00
720.08	923.00
720.33	904.00
720.58	905.00
720.83	867.00
721.09	927.00
721.34	941.00
721.59	961.00
721.84	885.00
722.09	919.00
722.35	932.00
722.60	916.00
722.85	888.00
723.10	915.00
723.35	917.00
723.61	962.00
723.86	941.00
724.11	934.00
724.36	930.00
724.61	917.00
724.87	917.00
725.12	908.00
725.37	908.00
725.62	902.00
725.87	910.00
726.12	901.00
726.38	926.00
726.63	936.00
726.88	907.00
727.13	938.00
727.38	920.00
727.64	927.00
727.89	900.00
728.14	910.00
728.39	910.00
728.64	945.00
728.89	902.00
729.15	931.00
729.40	940.00
729.65	957.00
729.90	901.00
730.15	921.00
730.40	944.00
730.66	925.00
730.91	889.00
731.16	926.00
731.41	944.00
731.66	949.00
731.91	906.00
732.17	925.00
732.42	945.00
732.67	924.00
732.92	902.00
733.17	941.00
733.42	938.00
733.68	935.00
733.93	895.00
734.18	910.00
734.43	892.00
734.68	916.00
734.93	906.00
735.18	923.00
735.44	921.00
735.69	919.00
735.94	858.00
736.19	909.00
736.44	917.00
736.69	964.00
736.95	903.00
737.20	921.00
737.45	944.00
737.70	937.00
737.95	923.00
738.20	941.00
738.45	926.00
738.70	932.00
738.96	918.00
739.21	949.00
739.46	945.00
739.71	957.00
739.96	918.00
740.21	948.00
740.46	1010.00
740.72	983.00
740.97	917.00
741.22	945.00
741.47	909.00
741.72	932.00
741.97	906.00
742.22	920.00
742.47	952.00
742.73	926.00
742.98	897.00
743.23	912.00
743.48	922.00
743.73	936.00
743.98	925.00
744.23	919.00
744.48	942.00
744.74	921.00
744.99	882.00
745.24	932.00
745.49	919.00
745.74	935.00
745.99	911.00
746.24	925.00
746.49	902.00
746.74	894.00
747.00	920.00
747.25	916.00
747.50	896.00
747.75	906.00
748.00	870.00
748.25	925.00
748.50	928.00
748.75	941.00
749.00	944.00
749.26	968.00
749.51	945.00
749.76	948.00
750.01	903.00
750.26	927.00
750.51	948.00
750.76	935.00
751.01	900.00
751.26	927.00
751.51	941.00
751.77	954.00
752.02	924.00
752.27	903.00
752.52	915.00
752.77	933.00
753.02	914.00
753.27	930.00
753.52	917.00
753.77	930.00
754.02	904.00
754.27	913.00
754.52	902.00
754.78	933.00
755.03	910.00
755.28	933.00
755.53	922.00
755.78	921.00
756.03	896.00
756.28	927.00
756.53	932.00
756.78	952.00
757.03	901.00
757.28	925.00
757.53	954.00
757.79	896.00
758.04	908.00
758.29	950.00
758.54	950.00
758.79	941.00
759.04	894.00
759.29	906.00
759.54	929.00
759.79	920.00
760.04	903.00
760.29	918.00
760.54	925.00
760.79	926.00
761.04	903.00
761.29	929.00
761.55	920.00
761.80	930.00
762.05	882.00
762.30	916.00
762.55	935.00
762.80	955.00
763.05	953.00
763.30	950.00
763.55	945.00
763.80	930.00
764.05	878.00
764.30	930.00
764.55	961.00
764.80	949.00
765.05	887.00
765.30	926.00
765.55	916.00
765.80	909.00
766.05	882.00
766.30	909.00
766.56	925.00
766.81	945.00
767.06	932.00
767.31	922.00
767.56	913.00
767.81	938.00
768.06	906.00
768.31	927.00
768.56	919.00
768.81	987.00
769.06	910.00
769.31	917.00
769.56	906.00
769.81	938.00
770.06	903.00
770.31	917.00
770.56	924.00
770.81	911.00
771.06	886.00
771.31	930.00
771.56	926.00
771.81	937.00
772.06	884.00
772.31	924.00
772.56	949.00
772.81	960.00
773.06	904.00
773.31	925.00
773.56	935.00
773.81	901.00
774.06	892.00
774.31	916.00
774.56	933.00
774.81	953.00
775.06	913.00
775.31	926.00
775.56	939.00
775.81	916.00
776.06	896.00
776.31	915.00
776.56	915.00
776.82	932.00
777.07	900.00
777.32	920.00
777.57	933.00
777.82	973.00
778.07	912.00
778.32	908.00
778.57	927.00
778.82	949.00
779.07	898.00
779.32	894.00
779.57	907.00
779.82	923.00
780.07	903.00
780.32	907.00
780.56	925.00
780.81	970.00
781.06	888.00
781.31	913.00
781.56	942.00
781.81	924.00
782.06	906.00
782.31	946.00
782.56	932.00
782.81	949.00
783.06	897.00
783.31	901.00
783.56	918.00
783.81	948.00
784.06	908.00
784.31	909.00
784.56	896.00
784.81	973.00
785.06	934.00
785.31	936.00
785.56	916.00
785.81	903.00
786.06	871.00
786.31	925.00
786.56	906.00
786.81	914.00
787.06	915.00
787.31	930.00
787.56	930.00
787.81	909.00
788.06	888.00
788.31	934.00
788.56	904.00
788.81	937.00
789.06	913.00
789.31	906.00
789.56	922.00
789.81	920.00
790.06	890.00
790.31	933.00
790.56	916.00
790.80	909.00
791.05	887.00
791.30	890.00
791.55	900.00
791.80	924.00
792.05	894.00
792.30	912.00
792.55	910.00
792.80	937.00
793.05	910.00
793.30	914.00
793.55	944.00
793.80	951.00
794.05	906.00
794.30	928.00
794.55	936.00
794.80	953.00
795.05	891.00
795.30	900.00
795.54	898.00
795.79	937.00
796.04	908.00
796.29	940.00
796.54	924.00
796.79	948.00
797.04	902.00
797.29	916.00
797.54	941.00
797.79	945.00
798.04	915.00
798.29	905.00
798.54	899.00
798.79	909.00
799.04	886.00
799.29	916.00
799.53	922.00
799.78	913.00
800.03	900.00
800.28	891.00
800.53	916.00
800.78	961.00
801.03	895.00
801.28	917.00
801.53	930.00
801.78	936.00
802.03	905.00
802.28	943.00
802.52	947.00
802.77	957.00
803.02	937.00
803.27	934.00
803.52	901.00
803.77	948.00
804.02	929.00
804.27	929.00
804.52	928.00
804.77	951.00
805.02	905.00
805.27	927.00
805.51	914.00
805.76	945.00
806.01	903.00
806.26	917.00
806.51	918.00
806.76	960.00
807.01	917.00
807.26	901.00
807.51	935.00
807.76	916.00
808.00	890.00
808.25	919.00
808.50	929.00
808.75	918.00
809.00	895.00
809.25	909.00
809.50	906.00
809.75	932.00
810.00	903.00
810.24	893.00
810.49	882.00
810.74	922.00
810.99	915.00
811.24	922.00
811.49	924.00
811.74	931.00
811.99	868.00
812.24	916.00
812.48	916.00
812.73	901.00
812.98	871.00
813.23	887.00
813.48	911.00
813.73	906.00
813.98	869.00
814.23	910.00
814.47	904.00
814.72	898.00
814.97	898.00
815.22	938.00
815.47	893.00
815.72	919.00
815.97	882.00
816.22	892.00
816.46	912.00
816.71	935.00
816.96	925.00
817.21	935.00
817.46	926.00
817.71	931.00
817.96	912.00
818.20	906.00
818.45	894.00
818.70	932.00
818.95	896.00
819.20	906.00
819.45	921.00
819.70	920.00
819.94	894.00
820.19	913.00
820.44	909.00
820.69	942.00
820.94	900.00
821.19	926.00
821.44	982.00
821.68	994.00
821.93	920.00
822.18	932.00
822.43	944.00
822.68	933.00
822.93	901.00
823.17	941.00
823.42	921.00
823.67	914.00
823.92	896.00
824.17	922.00
824.42	927.00
824.67	954.00
824.91	914.00
825.16	908.00
825.41	915.00
825.66	938.00
825.91	877.00
826.16	907.00
826.40	931.00
826.65	915.00
826.90	889.00
827.15	911.00
827.40	924.00
827.65	955.00
827.89	884.00
828.14	919.00
828.39	925.00
828.64	924.00
828.89	905.00
829.13	925.00
829.38	918.00
829.63	930.00
829.88	894.00
830.13	894.00
830.38	891.00
830.62	919.00
830.87	904.00
831.12	925.00
831.37	931.00
831.62	958.00
831.86	908.00
832.11	913.00
832.36	893.00
832.61	928.00
832.86	892.00
833.10	913.00
833.35	932.00
833.60	948.00
833.85	898.00
834.10	931.00
834.35	954.00
834.59	955.00
834.84	914.00
835.09	941.00
835.34	897.00
835.59	925.00
835.83	910.00
836.08	916.00
836.33	924.00
836.58	922.00
836.83	894.00
837.07	919.00
837.32	923.00
837.57	921.00
837.82	900.00
838.06	924.00
838.31	956.00
838.56	962.00
838.81	891.00
839.06	915.00
839.30	924.00
839.55	950.00
839.80	891.00
840.05	926.00
840.30	940.00
840.54	963.00
840.79	902.00
841.04	928.00
841.29	946.00
841.53	949.00
841.78	904.00
842.03	886.00
842.28	890.00
842.53	917.00
842.77	907.00
843.02	933.00
843.27	915.00
843.52	922.00
843.76	905.00
844.01	904.00
844.26	919.00
844.51	938.00
844.75	889.00
845.00	894.00
845.25	923.00
845.50	944.00
845.75	900.00
845.99	924.00
846.24	928.00
846.49	938.00
846.74	897.00
846.98	903.00
847.23	923.00
847.48	930.00
847.73	883.00
847.97	912.00
848.22	946.00
848.47	936.00
848.72	886.00
848.96	912.00
849.21	953.00
849.46	910.00
849.71	888.00
849.95	899.00
850.20	901.00
850.45	933.00
850.70	882.00
850.94	919.00
851.19	922.00
851.44	914.00
851.69	877.00
851.93	915.00
852.18	937.00
852.43	941.00
852.68	925.00
852.92	966.00
853.17	973.00
853.42	961.00
853.66	909.00
853.91	942.00
854.16	924.00
854.41	962.00
854.65	901.00
854.90	916.00
855.15	919.00
855.40	926.00
855.64	909.00
855.89	915.00
856.14	912.00
856.39	897.00
856.63	892.00
856.88	910.00
857.13	909.00
857.37	918.00
857.62	881.00
857.87	873.00
858.12	922.00
858.36	943.00
858.61	876.00
858.86	914.00
859.10	943.00
859.35	933.00
859.60	877.00
859.85	885.00
860.09	896.00
860.34	936.00
860.59	914.00
860.83	913.00
861.08	908.00
861.33	944.00
861.58	912.00
861.82	910.00
862.07	924.00
862.32	917.00
862.56	892.00
862.81	900.00
863.06	909.00
863.30	910.00
863.55	926.00
863.80	921.00
864.05	920.00
864.29	928.00
864.54	932.00
864.79	947.00
865.03	925.00
865.28	954.00
865.53	912.00
865.77	911.00
866.02	931.00
866.27	933.00
866.51	904.00
866.76	902.00
867.01	905.00
867.26	944.00
867.50	900.00
867.75	902.00
868.00	933.00
868.24	940.00
868.49	900.00
868.74	913.00
868.98	904.00
869.23	944.00
869.48	927.00
869.72	931.00
869.97	919.00
870.22	960.00
870.46	914.00
870.71	925.00
870.96	910.00
871.20	926.00
871.45	876.00
871.70	901.00
871.94	958.00
872.19	973.00
872.44	936.00
872.68	909.00
872.93	915.00
873.18	941.00
873.42	901.00
873.67	920.00
873.92	934.00
874.16	920.00
874.41	909.00
874.66	929.00
874.90	940.00
875.15	965.00
875.40	941.00
875.64	934.00
875.89	926.00
876.14	945.00
876.38	908.00
876.63	903.00
876.88	937.00
877.12	943.00
877.37	909.00
877.62	933.00
877.86	913.00
878.11	951.00
878.36	895.00
878.60	912.00
878.85	908.00
879.09	934.00
879.34	897.00
879.59	941.00
879.83	939.00
880.08	956.00
880.33	925.00
880.57	938.00
880.82	939.00
881.07	934.00
881.31	913.00
881.56	910.00
881.80	901.00
882.05	913.00
882.30	874.00
882.54	912.00
882.79	953.00
883.04	980.00
883.28	933.00
883.53	919.00
883.77	938.00
884.02	939.00
884.27	886.00
884.51	896.00
884.76	918.00
885.01	948.00
885.25	894.00
885.50	924.00
885.74	925.00
885.99	956.00
886.24	904.00
886.48	905.00
886.73	940.00
886.98	967.00
887.22	924.00
887.47	919.00
887.71	939.00
887.96	929.00
888.21	914.00
888.45	917.00
888.70	909.00
888.94	961.00
889.19	895.00
889.44	908.00
889.68	921.00
889.93	963.00
890.17	916.00
890.42	900.00
890.67	948.00
890.91	1012.00
891.16	913.00
891.40	896.00
891.65	908.00
891.90	939.00
892.14	875.00
892.39	917.00
892.63	931.00
892.88	958.00
893.13	916.00
893.37	896.00
893.62	918.00
893.86	939.00
894.11	899.00
894.36	916.00
894.60	897.00
894.85	908.00
895.09	909.00
895.34	940.00
895.59	932.00
895.83	925.00
896.08	900.00
896.32	896.00
896.57	926.00
896.81	941.00
897.06	899.00
897.31	904.00
897.55	918.00
897.80	913.00
898.04	890.00
898.29	903.00
898.53	912.00
898.78	948.00
899.03	913.00
899.27	906.00
899.52	934.00
899.76	948.00
900.01	894.00
900.25	909.00
900.50	933.00
900.75	946.00
900.99	915.00
901.24	964.00
901.48	933.00
901.73	936.00
901.97	892.00
902.22	924.00
902.47	936.00
902.71	925.00
902.96	882.00
903.20	924.00
903.45	949.00
903.69	937.00
903.94	925.00
904.18	892.00
904.43	905.00
904.68	928.00
904.92	882.00
905.17	901.00
905.41	925.00
905.66	951.00
905.90	949.00
906.15	922.00
906.39	923.00
906.64	910.00
906.88	896.00
907.13	911.00
907.38	940.00
907.62	958.00
907.87	906.00
908.11	929.00
908.36	916.00
908.60	936.00
908.85	875.00
909.09	909.00
909.34	911.00
909.58	923.00
909.83	908.00
910.07	922.00
910.32	962.00
910.56	968.00
910.81	919.00
911.06	942.00
911.30	944.00
911.55	917.00
911.79	897.00
912.04	897.00
912.28	920.00
912.53	944.00
912.77	913.00
913.02	928.00
913.26	925.00
913.51	915.00
913.75	915.00
914.00	909.00
914.24	932.00
914.49	940.00
914.73	910.00
914.98	938.00
915.22	960.00
915.47	933.00
915.71	901.00
915.96	905.00
916.20	919.00
916.45	893.00
916.69	880.00
916.94	920.00
917.18	923.00
917.43	934.00
917.67	886.00
917.92	890.00
918.16	935.00
918.41	933.00
918.65	892.00
918.90	885.00
919.14	891.00
919.39	911.00
919.63	896.00
919.88	908.00
920.12	931.00
920.37	936.00
920.61	896.00
920.86	923.00
921.10	944.00
921.35	917.00
921.59	887.00
921.84	909.00
922.08	928.00
922.33	953.00
922.57	893.00
922.82	893.00
923.06	913.00
923.31	934.00
923.55	892.00
923.80	896.00
924.04	906.00
924.29	919.00
924.53	887.00
924.78	901.00
925.02	905.00
925.27	918.00
925.51	919.00
925.76	939.00
926.00	916.00
926.25	916.00
926.49	889.00
926.73	916.00
926.98	924.00
927.22	946.00
927.47	934.00
927.71	935.00
927.96	953.00
928.20	948.00
928.45	920.00
928.69	953.00
928.94	958.00
929.18	929.00
929.43	932.00
929.67	931.00
929.91	933.00
930.16	933.00
930.40	897.00
930.65	894.00
930.89	927.00
931.14	959.00
931.38	926.00
931.63	944.00
931.87	944.00
932.12	938.00
932.36	872.00
932.60	881.00
932.85	936.00
933.09	911.00
933.34	876.00
933.58	929.00
933.83	911.00
934.07	947.00
934.32	923.00
934.56	931.00
934.80	960.00
935.05	960.00
935.29	914.00
935.54	926.00
935.78	931.00
936.03	945.00
936.27	891.00
936.52	896.00
936.76	914.00
937.00	924.00
937.25	913.00
937.49	944.00
937.74	940.00
937.98	945.00
938.23	896.00
938.47	888.00
938.71	909.00
938.96	913.00
939.20	889.00
939.45	887.00
939.69	917.00
939.94	933.00
940.18	888.00
940.42	915.00
940.67	936.00
940.91	920.00
941.16	897.00
941.40	888.00
941.64	908.00
941.89	919.00
942.13	883.00
942.38	924.00
942.62	1007.00
942.87	960.00
943.11	925.00
943.35	911.00
943.60	932.00
943.84	961.00
944.09	931.00
944.33	945.00
944.57	951.00
944.82	928.00
945.06	892.00
945.31	917.00
945.55	907.00
945.79	945.00
946.04	899.00
946.28	908.00
946.53	925.00
946.77	924.00
947.01	870.00
947.26	949.00
947.50	923.00
947.75	950.00
947.99	921.00
948.23	926.00
948.48	930.00
948.72	933.00
948.97	894.00
949.21	910.00
949.45	922.00
949.70	953.00
949.94	930.00
950.18	940.00
950.43	936.00
950.67	944.00
950.92	917.00
951.16	888.00
951.40	912.00
951.65	927.00
951.89	914.00
952.13	912.00
952.38	941.00
952.62	948.00
952.87	905.00
953.11	924.00
953.35	955.00
953.60	945.00
953.84	873.00
954.08	880.00
954.33	918.00
954.57	935.00
954.82	901.00
955.06	907.00
955.30	912.00
955.55	907.00
955.79	905.00
956.03	910.00
956.28	917.00
956.52	927.00
956.76	920.00
957.01	934.00
957.25	912.00
957.50	927.00
957.74	900.00
957.98	892.00
958.23	931.00
958.47	938.00
958.71	915.00
958.96	941.00
959.20	962.00
959.44	930.00
959.69	902.00
959.93	910.00
960.17	920.00
960.42	931.00
960.66	902.00
960.90	916.00
961.15	927.00
961.39	909.00
961.64	882.00
961.88	893.00
962.12	932.00
962.37	929.00
962.61	897.00
962.85	884.00
963.10	916.00
963.34	933.00
963.58	889.00
963.83	913.00
964.07	924.00
964.31	937.00
964.56	913.00
964.80	917.00
965.04	922.00
965.29	912.00
965.53	877.00
965.77	890.00
966.02	882.00
966.26	897.00
966.50	894.00
966.74	925.00
966.99	948.00
967.23	941.00
967.47	912.00
967.72	904.00
967.96	934.00
968.20	933.00
968.45	882.00
968.69	891.00
968.93	898.00
969.18	924.00
969.42	921.00
969.66	903.00
969.91	907.00
970.15	938.00
970.39	900.00
970.64	911.00
970.88	934.00
971.12	945.00
971.36	903.00
971.61	901.00
971.85	917.00
972.09	910.00
972.34	888.00
972.58	914.00
972.82	933.00
973.07	957.00
973.31	900.00
973.55	915.00
973.79	937.00
974.04	969.00
974.28	926.00
974.52	902.00
974.77	921.00
975.01	934.00
975.25	897.00
975.50	904.00
975.74	929.00
975.98	947.00
976.22	923.00
976.47	901.00
976.71	928.00
976.95	937.00
977.20	926.00
977.44	927.00
977.68	925.00
977.92	934.00
978.17	896.00
978.41	916.00
978.65	929.00
978.90	936.00
979.14	911.00
979.38	906.00
979.62	932.00
979.87	923.00
980.11	884.00
980.35	922.00
980.59	917.00
980.84	935.00
981.08	920.00
981.32	912.00
981.57	935.00
981.81	918.00
982.05	904.00
982.29	915.00
982.54	922.00
982.78	927.00
983.02	876.00
983.26	915.00
983.51	956.00
983.75	950.00
983.99	916.00
984.23	934.00
984.48	942.00
984.72	949.00
984.96	884.00
985.20	900.00
985.45	980.00
985.69	942.00
985.93	903.00
986.17	949.00
986.42	941.00
986.66	915.00
986.90	863.00
987.14	900.00
987.39	925.00
987.63	907.00
987.87	882.00
988.11	897.00
988.36	912.00
988.60	926.00
988.84	914.00
989.08	904.00
989.33	962.00
989.57	956.00
989.81	877.00
990.05	873.00
990.30	909.00
990.54	914.00
990.78	905.00
991.02	887.00
991.27	934.00
991.51	932.00
991.75	905.00
991.99	935.00
992.23	906.00
992.48	896.00
992.72	883.00
992.96	892.00
993.20	890.00
993.45	913.00
993.69	917.00
993.93	902.00
994.17	932.00
994.41	917.00
994.66	876.00
994.90	903.00
995.14	940.00
995.38	922.00
995.63	889.00
995.87	908.00
996.11	954.00
996.35	942.00
996.59	888.00
996.84	898.00
997.08	929.00
997.32	912.00
997.56	884.00
997.80	869.00
998.05	881.00
998.29	894.00
998.53	881.00
998.77	898.00
999.01	932.00
999.26	919.00
999.50	900.00
999.74	900.00
999.98	906.00
1000.22	917.00
1000.47	877.00
1000.71	879.00
1000.95	931.00
1001.19	944.00
1001.43	906.00
1001.68	923.00
1001.92	915.00
1002.16	915.00
1002.40	883.00
1002.64	914.00
1002.89	919.00
1003.13	919.00
1003.37	906.00
1003.61	907.00
1003.85	926.00
1004.10	921.00
1004.34	900.00
1004.58	897.00
1004.82	941.00
1005.06	928.00
1005.30	901.00
1005.55	886.00
1005.79	930.00
1006.03	916.00
1006.27	884.00
1006.51	898.00
1006.76	925.00
1007.00	925.00
1007.24	909.00
1007.48	920.00
1007.72	950.00
1007.96	930.00
1008.21	896.00
1008.45	931.00
1008.69	935.00
1008.93	955.00
1009.17	913.00
1009.41	942.00
1009.66	957.00
1009.90	933.00
1010.14	894.00
1010.38	922.00
1010.62	948.00
1010.86	962.00
1011.10	906.00
1011.35	910.00
1011.59	926.00
1011.83	894.00
1012.07	877.00
1012.31	920.00
1012.55	920.00
1012.80	932.00
1013.04	921.00
1013.28	924.00
1013.52	924.00
1013.76	948.00
1014.00	895.00
1014.24	902.00
1014.49	920.00
1014.73	970.00
1014.97	939.00
1015.21	921.00
1015.45	942.00
1015.69	940.00
1015.93	917.00
1016.18	907.00
1016.42	950.00
1016.66	941.00
1016.90	897.00
1017.14	888.00
1017.38	906.00
1017.62	925.00
1017.87	902.00
1018.11	902.00
1018.35	920.00
1018.59	928.00
1018.83	879.00
1019.07	907.00
1019.31	949.00
1019.55	942.00
1019.80	897.00
1020.04	906.00
1020.28	922.00
1020.52	952.00
1020.76	893.00
1021.00	881.00
1021.24	905.00
1021.48	906.00
1021.73	925.00
1021.97	916.00
1022.21	907.00
1022.45	928.00
1022.69	898.00
1022.93	896.00
1023.17	925.00
1023.41	960.00
1023.65	913.00
1023.90	951.00
1024.14	964.00
1024.38	905.00
1024.62	874.00
1024.86	908.00
1025.10	933.00
1025.34	916.00
1025.58	890.00
1025.82	902.00
1026.07	942.00
1026.31	938.00
1026.55	878.00
1026.79	882.00
1027.03	922.00
1027.27	921.00
1027.51	884.00
1027.75	882.00
1027.99	898.00
1028.23	961.00
1028.47	916.00
1028.72	893.00
1028.96	917.00
1029.20	931.00
1029.44	939.00
1029.68	920.00
1029.92	924.00
1030.16	927.00
1030.40	859.00
1030.64	901.00
1030.88	910.00
1031.12	902.00
1031.37	869.00
1031.61	929.00
1031.85	954.00
1032.09	956.00
1032.33	901.00
1032.57	952.00
1032.81	934.00
1033.05	953.00
1033.29	910.00
1033.53	906.00
1033.77	985.00
1034.01	974.00
1034.25	920.00
1034.50	911.00
1034.74	926.00
1034.98	933.00
1035.22	913.00
1035.46	921.00
1035.70	953.00
1035.94	949.00
1036.18	916.00
1036.42	904.00
1036.66	901.00
1036.90	905.00
1037.14	876.00
1037.38	900.00
1037.62	926.00
1037.86	909.00
1038.10	895.00
1038.35	903.00
1038.59	936.00
1038.83	945.00
1039.07	928.00
1039.31	918.00
1039.55	893.00
1039.79	917.00
1040.03	889.00
1040.27	883.00
1040.51	921.00
1040.75	967.00
1040.99	928.00
1041.23	933.00
1041.47	943.00
1041.71	942.00
1041.95	906.00
1042.19	890.00
1042.43	948.00
1042.67	961.00
1042.91	922.00
1043.15	909.00
1043.39	953.00
1043.64	927.00
1043.88	898.00
1044.12	925.00
1044.36	990.00
1044.60	979.00
1044.84	920.00
1045.08	910.00
1045.32	934.00
1045.56	948.00
1045.80	915.00
1046.04	909.00
1046.28	933.00
1046.52	932.00
1046.76	880.00
1047.00	895.00
1047.24	937.00
1047.48	926.00
1047.72	914.00
1047.96	919.00
1048.20	946.00
1048.44	926.00
1048.68	896.00
1048.92	922.00
1049.16	936.00
1049.40	934.00
1049.64	904.00
1049.88	924.00
1050.12	955.00
1050.36	948.00
1050.60	908.00
1050.84	903.00
1051.08	935.00
1051.32	916.00
1051.56	913.00
1051.80	904.00
1052.04	921.00
1052.28	952.00
1052.52	909.00
1052.76	889.00
1053.00	910.00
1053.24	931.00
1053.48	894.00
1053.72	924.00
1053.96	922.00
1054.20	944.00
1054.44	916.00
1054.68	939.00
1054.92	934.00
1055.16	888.00
1055.40	893.00
1055.64	934.00
1055.88	962.00
1056.12	977.00
1056.36	888.00
1056.60	896.00
1056.84	962.00
1057.08	929.00
1057.32	905.00
1057.56	886.00
1057.80	904.00
1058.04	940.00
1058.28	906.00
1058.52	918.00
1058.76	947.00
1059.00	953.00
1059.24	889.00
1059.48	889.00
1059.72	927.00
1059.96	917.00
1060.20	917.00
1060.44	934.00
1060.68	954.00
1060.92	930.00
1061.16	886.00
1061.40	904.00
1061.64	927.00
1061.88	933.00
1062.11	900.00
1062.35	884.00
1062.59	901.00
1062.83	938.00
1063.07	904.00
1063.31	896.00
1063.55	919.00
1063.79	960.00
1064.03	924.00
1064.27	894.00
1064.51	918.00
1064.75	933.00
1064.99	914.00
1065.23	913.00
1065.47	917.00
1065.71	947.00
1065.95	908.00
1066.19	914.00
1066.43	940.00
1066.67	939.00
1066.91	938.00
1067.15	918.00
1067.38	901.00
1067.62	931.00
1067.86	888.00
1068.10	911.00
1068.34	962.00
1068.58	971.00
1068.82	905.00
1069.06	876.00
1069.30	909.00
1069.54	944.00
1069.78	936.00
1070.02	907.00
1070.26	951.00
1070.50	965.00
1070.74	909.00
1070.98	945.00
1071.21	932.00
1071.45	930.00
1071.69	882.00
1071.93	904.00
1072.17	930.00
1072.41	921.00
1072.65	920.00
1072.89	933.00
1073.13	919.00
1073.37	919.00
1073.61	885.00
1073.85	904.00
1074.09	893.00
1074.32	888.00
1074.56	909.00
1074.80	993.00
1075.04	1196.00
1075.28	1034.00
1075.52	910.00
1075.76	918.00
1076.00	949.00
1076.24	938.00
1076.48	933.00
1076.72	923.00
1076.96	941.00
1077.19	921.00
1077.43	869.00
1077.67	926.00
1077.91	932.00
1078.15	901.00
1078.39	894.00
1078.63	898.00
1078.87	899.00
1079.11	912.00
1079.35	884.00
1079.58	900.00
1079.82	925.00
1080.06	917.00
1080.30	884.00
1080.54	910.00
1080.78	955.00
1081.02	926.00
1081.26	911.00
1081.50	930.00
1081.74	942.00
1081.97	947.00
1082.21	921.00
1082.45	933.00
1082.69	946.00
1082.93	925.00
1083.17	914.00
1083.41	908.00
1083.65	954.00
1083.88	973.00
1084.12	918.00
1084.36	938.00
1084.60	952.00
1084.84	930.00
1085.08	874.00
1085.32	918.00
1085.56	954.00
1085.80	941.00
1086.03	912.00
1086.27	889.00
1086.51	918.00
1086.75	941.00
1086.99	889.00
1087.23	893.00
1087.47	935.00
1087.70	933.00
1087.94	908.00
1088.18	941.00
1088.42	979.00
1088.66	937.00
1088.90	875.00
1089.14	901.00
1089.38	914.00
1089.61	941.00
1089.85	931.00
1090.09	899.00
1090.33	956.00
1090.57	941.00
1090.81	869.00
1091.05	901.00
1091.28	945.00
1091.52	937.00
1091.76	896.00
1092.00	910.00
1092.24	925.00
1092.48	963.00
1092.71	884.00
1092.95	934.00
1093.19	950.00
1093.43	938.00
1093.67	886.00
1093.91	917.00
1094.15	920.00
1094.38	936.00
1094.62	894.00
1094.86	909.00
1095.10	902.00
1095.34	912.00
1095.58	902.00
1095.81	916.00
1096.05	946.00
1096.29	960.00
1096.53	890.00
1096.77	909.00
1097.01	916.00
1097.24	942.00
1097.48	893.00
1097.72	922.00
1097.96	921.00
1098.20	923.00
1098.44	884.00
1098.67	865.00
1098.91	934.00
1099.15	943.00
1099.39	897.00
1099.63	910.00
1099.86	922.00
1100.10	903.00
1100.34	900.00
1100.58	898.00
1100.82	922.00
1101.06	907.00
1101.29	880.00
1101.53	896.00
1101.77	923.00
1102.01	914.00
1102.25	901.00
1102.48	924.00
1102.72	968.00
1102.96	936.00
1103.20	869.00
1103.44	885.00
1103.67	918.00
1103.91	941.00
1104.15	888.00
1104.39	893.00
1104.63	940.00
1104.86	912.00
1105.10	885.00
1105.34	924.00
1105.58	924.00
1105.82	929.00
1106.05	905.00
1106.29	920.00
1106.53	919.00
1106.77	956.00
1107.01	879.00
1107.24	931.00
1107.48	988.00
1107.72	933.00
1107.96	881.00
1108.20	927.00
1108.43	930.00
1108.67	917.00
1108.91	887.00
1109.15	900.00
1109.39	915.00
1109.62	913.00
1109.86	885.00
1110.10	901.00
1110.34	959.00
1110.57	979.00
1110.81	900.00
1111.05	904.00
1111.29	959.00
1111.53	973.00
1111.76	908.00
1112.00	936.00
1112.24	943.00
1112.48	935.00
1112.71	894.00
1112.95	903.00
1113.19	940.00
1113.43	942.00
1113.66	884.00
1113.90	896.00
1114.14	926.00
1114.38	931.00
1114.62	889.00
1114.85	930.00
1115.09	914.00
1115.33	970.00
1115.57	918.00
1115.80	900.00
1116.04	922.00
1116.28	931.00
1116.52	913.00
1116.75	912.00
1116.99	947.00
1117.23	958.00
1117.47	937.00
1117.70	940.00
1117.94	996.00
1118.18	929.00
1118.42	906.00
1118.65	931.00
1118.89	950.00
1119.13	941.00
1119.37	886.00
1119.60	900.00
1119.84	931.00
>>>>>End Processed Spectral Data<<<<<
