SpectraSuite Data File
++++++++++++++++++++++++++++++++++++
Date: Fri Nov 29 15:11:35 CET 2024
User: student
Dark Spectrum Present: No
Reference Spectrum Present: No
Number of Sampled Component Spectra: 1
Spectrometers: HR4C155
Integration Time (usec): 100000 (HR4C155)
Spectra Averaged: 1 (HR4C155)
Boxcar Smoothing: 0 (HR4C155)
Correct for Electrical Dark: No (HR4C155)
Strobe/Lamp Enabled: No (HR4C155)
Correct for Detector Non-linearity: No (HR4C155)
Correct for Stray Light: No (HR4C155)
Number of Pixels in Processed Spectrum: 3648
>>>>>Begin Processed Spectral Data<<<<<
195.39	734.00
195.66	734.00
195.93	734.00
196.20	700.00
196.46	742.00
196.73	870.00
197.00	895.00
197.27	889.00
197.54	907.00
197.81	914.00
198.08	918.00
198.35	933.00
198.61	931.00
198.88	895.00
199.15	887.00
199.42	932.00
199.69	952.00
199.96	907.00
200.23	916.00
200.49	925.00
200.76	952.00
201.03	940.00
201.30	934.00
201.57	981.00
201.84	989.00
202.11	931.00
202.38	935.00
202.64	966.00
202.91	973.00
203.18	921.00
203.45	972.00
203.72	1038.00
203.99	970.00
204.25	969.00
204.52	962.00
204.79	976.00
205.06	998.00
205.33	933.00
205.60	944.00
205.87	992.00
206.13	986.00
206.40	956.00
206.67	933.00
206.94	980.00
207.21	971.00
207.48	936.00
207.75	944.00
208.01	979.00
208.28	993.00
208.55	945.00
208.82	957.00
209.09	965.00
209.36	989.00
209.62	962.00
209.89	970.00
210.16	986.00
210.43	1014.00
210.70	934.00
210.97	940.00
211.23	981.00
211.50	1013.00
211.77	949.00
212.04	952.00
212.31	964.00
212.58	991.00
212.84	940.00
213.11	943.00
213.38	942.00
213.65	973.00
213.92	937.00
214.18	942.00
214.45	996.00
214.72	991.00
214.99	915.00
215.26	936.00
215.53	946.00
215.79	991.00
216.06	962.00
216.33	966.00
216.60	941.00
216.87	978.00
217.13	920.00
217.40	936.00
217.67	968.00
217.94	994.00
218.21	921.00
218.48	998.00
218.74	1027.00
219.01	988.00
219.28	922.00
219.55	927.00
219.82	965.00
220.08	971.00
220.35	956.00
220.62	956.00
220.89	998.00
221.16	1016.00
221.42	958.00
221.69	962.00
221.96	986.00
222.23	1003.00
222.50	987.00
222.76	992.00
223.03	967.00
223.30	966.00
223.57	934.00
223.84	921.00
224.10	917.00
224.37	963.00
224.64	928.00
224.91	939.00
225.18	984.00
225.44	1000.00
225.71	937.00
225.98	956.00
226.25	996.00
226.51	990.00
226.78	939.00
227.05	930.00
227.32	941.00
227.59	958.00
227.85	963.00
228.12	940.00
228.39	985.00
228.66	1013.00
228.92	1014.00
229.19	951.00
229.46	981.00
229.73	946.00
230.00	937.00
230.26	971.00
230.53	989.00
230.80	971.00
231.07	910.00
231.33	931.00
231.60	971.00
231.87	997.00
232.14	959.00
232.41	1007.00
232.67	1017.00
232.94	1008.00
233.21	949.00
233.48	957.00
233.74	968.00
234.01	963.00
234.28	937.00
234.55	964.00
234.81	959.00
235.08	1000.00
235.35	940.00
235.62	925.00
235.88	939.00
236.15	993.00
236.42	969.00
236.69	973.00
236.95	1002.00
237.22	968.00
237.49	948.00
237.76	961.00
238.02	999.00
238.29	1014.00
238.56	955.00
238.83	940.00
239.09	969.00
239.36	989.00
239.63	939.00
239.90	941.00
240.16	995.00
240.43	1046.00
240.70	961.00
240.97	946.00
241.23	969.00
241.50	982.00
241.77	961.00
242.04	951.00
242.30	932.00
242.57	948.00
242.84	937.00
243.11	950.00
243.37	932.00
243.64	1012.00
243.91	953.00
244.18	931.00
244.44	936.00
244.71	959.00
244.98	943.00
245.24	938.00
245.51	967.00
245.78	997.00
246.05	935.00
246.31	948.00
246.58	976.00
246.85	953.00
247.12	928.00
247.38	967.00
247.65	983.00
247.92	989.00
248.18	960.00
248.45	962.00
248.72	983.00
248.99	996.00
249.25	940.00
249.52	960.00
249.79	991.00
250.05	974.00
250.32	940.00
250.59	939.00
250.86	950.00
251.12	951.00
251.39	921.00
251.66	952.00
251.92	982.00
252.19	984.00
252.46	942.00
252.73	988.00
252.99	985.00
253.26	986.00
253.53	928.00
253.79	977.00
254.06	991.00
254.33	950.00
254.60	924.00
254.86	948.00
255.13	985.00
255.40	1002.00
255.66	959.00
255.93	970.00
256.20	979.00
256.46	984.00
256.73	937.00
257.00	955.00
257.26	988.00
257.53	1003.00
257.80	957.00
258.07	971.00
258.33	1001.00
258.60	988.00
258.87	928.00
259.13	950.00
259.40	947.00
259.67	1009.00
259.93	965.00
260.20	985.00
260.47	986.00
260.73	957.00
261.00	947.00
261.27	941.00
261.53	981.00
261.80	965.00
262.07	934.00
262.34	956.00
262.60	931.00
262.87	973.00
263.14	931.00
263.40	963.00
263.67	957.00
263.94	958.00
264.20	953.00
264.47	913.00
264.74	929.00
265.00	945.00
265.27	912.00
265.54	938.00
265.80	977.00
266.07	993.00
266.34	919.00
266.60	947.00
266.87	984.00
267.14	990.00
267.40	938.00
267.67	931.00
267.94	976.00
268.20	955.00
268.47	924.00
268.74	932.00
269.00	977.00
269.27	958.00
269.54	897.00
269.80	910.00
270.07	977.00
270.33	946.00
270.60	935.00
270.87	963.00
271.13	944.00
271.40	959.00
271.67	899.00
271.93	923.00
272.20	966.00
272.47	953.00
272.73	922.00
273.00	944.00
273.27	957.00
273.53	993.00
273.80	940.00
274.07	932.00
274.33	936.00
274.60	955.00
274.86	934.00
275.13	959.00
275.40	958.00
275.66	978.00
275.93	920.00
276.20	919.00
276.46	939.00
276.73	933.00
277.00	925.00
277.26	950.00
277.53	984.00
277.79	952.00
278.06	917.00
278.33	981.00
278.59	974.00
278.86	937.00
279.13	923.00
279.39	928.00
279.66	987.00
279.93	1006.00
280.19	943.00
280.46	938.00
280.72	945.00
280.99	977.00
281.26	937.00
281.52	927.00
281.79	961.00
282.05	973.00
282.32	962.00
282.59	965.00
282.85	998.00
283.12	980.00
283.39	938.00
283.65	957.00
283.92	958.00
284.18	989.00
284.45	952.00
284.72	951.00
284.98	966.00
285.25	952.00
285.51	963.00
285.78	966.00
286.05	972.00
286.31	976.00
286.58	921.00
286.84	930.00
287.11	952.00
287.38	979.00
287.64	952.00
287.91	927.00
288.17	963.00
288.44	965.00
288.71	910.00
288.97	941.00
289.24	967.00
289.50	957.00
289.77	955.00
290.04	921.00
290.30	934.00
290.57	982.00
290.83	944.00
291.10	945.00
291.37	972.00
291.63	967.00
291.90	971.00
292.16	960.00
292.43	969.00
292.70	953.00
292.96	906.00
293.23	932.00
293.49	951.00
293.76	955.00
294.02	933.00
294.29	942.00
294.56	977.00
294.82	978.00
295.09	931.00
295.35	929.00
295.62	982.00
295.89	999.00
296.15	925.00
296.42	924.00
296.68	939.00
296.95	956.00
297.21	955.00
297.48	939.00
297.75	960.00
298.01	998.00
298.28	945.00
298.54	957.00
298.81	969.00
299.07	970.00
299.34	906.00
299.61	926.00
299.87	958.00
300.14	955.00
300.40	962.00
300.67	942.00
300.93	961.00
301.20	1008.00
301.46	933.00
301.73	936.00
302.00	959.00
302.26	955.00
302.53	942.00
302.79	944.00
303.06	967.00
303.32	1010.00
303.59	943.00
303.85	938.00
304.12	942.00
304.39	974.00
304.65	942.00
304.92	938.00
305.18	954.00
305.45	965.00
305.71	929.00
305.98	934.00
306.24	948.00
306.51	949.00
306.77	941.00
307.04	945.00
307.31	973.00
307.57	980.00
307.84	915.00
308.10	930.00
308.37	932.00
308.63	957.00
308.90	940.00
309.16	948.00
309.43	981.00
309.69	957.00
309.96	951.00
310.22	940.00
310.49	958.00
310.76	957.00
311.02	925.00
311.29	945.00
311.55	949.00
311.82	970.00
312.08	953.00
312.35	969.00
312.61	984.00
312.88	983.00
313.14	924.00
313.41	934.00
313.67	921.00
313.94	965.00
314.20	934.00
314.47	954.00
314.73	932.00
315.00	934.00
315.26	919.00
315.53	953.00
315.79	950.00
316.06	961.00
316.32	927.00
316.59	943.00
316.85	960.00
317.12	981.00
317.39	917.00
317.65	924.00
317.92	942.00
318.18	975.00
318.45	957.00
318.71	982.00
318.98	981.00
319.24	981.00
319.51	940.00
319.77	934.00
320.04	944.00
320.30	945.00
320.57	914.00
320.83	920.00
321.10	926.00
321.36	934.00
321.63	923.00
321.89	934.00
322.16	994.00
322.42	971.00
322.69	934.00
322.95	926.00
323.22	964.00
323.48	974.00
323.75	929.00
324.01	938.00
324.28	952.00
324.54	973.00
324.80	951.00
325.07	955.00
325.33	968.00
325.60	949.00
325.86	904.00
326.13	937.00
326.39	957.00
326.66	944.00
326.92	892.00
327.19	924.00
327.45	989.00
327.72	997.00
327.98	923.00
328.25	925.00
328.51	964.00
328.78	956.00
329.04	915.00
329.31	942.00
329.57	956.00
329.84	951.00
330.10	915.00
330.37	933.00
330.63	990.00
330.89	1004.00
331.16	940.00
331.42	948.00
331.69	994.00
331.95	954.00
332.22	944.00
332.48	968.00
332.75	973.00
333.01	938.00
333.28	906.00
333.54	925.00
333.81	946.00
334.07	977.00
334.34	945.00
334.60	953.00
334.86	989.00
335.13	989.00
335.39	935.00
335.66	942.00
335.92	973.00
336.19	969.00
336.45	889.00
336.72	921.00
336.98	936.00
337.24	958.00
337.51	909.00
337.77	932.00
338.04	946.00
338.30	964.00
338.57	926.00
338.83	956.00
339.10	985.00
339.36	976.00
339.63	945.00
339.89	920.00
340.15	953.00
340.42	977.00
340.68	941.00
340.95	953.00
341.21	956.00
341.48	955.00
341.74	917.00
342.00	916.00
342.27	961.00
342.53	965.00
342.80	923.00
343.06	929.00
343.33	962.00
343.59	967.00
343.85	929.00
344.12	961.00
344.38	1017.00
344.65	992.00
344.91	922.00
345.18	939.00
345.44	948.00
345.70	935.00
345.97	883.00
346.23	925.00
346.50	977.00
346.76	949.00
347.03	953.00
347.29	942.00
347.55	951.00
347.82	944.00
348.08	904.00
348.35	920.00
348.61	1001.00
348.87	964.00
349.14	910.00
349.40	922.00
349.67	964.00
349.93	939.00
350.20	934.00
350.46	950.00
350.72	970.00
350.99	953.00
351.25	934.00
351.52	919.00
351.78	942.00
352.04	965.00
352.31	926.00
352.57	940.00
352.84	958.00
353.10	953.00
353.36	933.00
353.63	928.00
353.89	958.00
354.16	962.00
354.42	928.00
354.68	948.00
354.95	982.00
355.21	984.00
355.48	913.00
355.74	939.00
356.00	969.00
356.27	967.00
356.53	916.00
356.80	920.00
357.06	955.00
357.32	976.00
357.59	951.00
357.85	959.00
358.11	986.00
358.38	970.00
358.64	926.00
358.91	949.00
359.17	965.00
359.43	982.00
359.70	954.00
359.96	944.00
360.22	967.00
360.49	950.00
360.75	938.00
361.02	920.00
361.28	938.00
361.54	954.00
361.81	913.00
362.07	945.00
362.33	946.00
362.60	947.00
362.86	915.00
363.13	954.00
363.39	989.00
363.65	973.00
363.92	888.00
364.18	905.00
364.44	941.00
364.71	956.00
364.97	933.00
365.24	920.00
365.50	969.00
365.76	982.00
366.03	933.00
366.29	971.00
366.55	978.00
366.82	949.00
367.08	908.00
367.34	949.00
367.61	976.00
367.87	966.00
368.13	937.00
368.40	944.00
368.66	995.00
368.93	985.00
369.19	919.00
369.45	930.00
369.72	971.00
369.98	957.00
370.24	905.00
370.51	920.00
370.77	958.00
371.03	969.00
371.30	943.00
371.56	964.00
371.82	977.00
372.09	947.00
372.35	930.00
372.61	946.00
372.88	953.00
373.14	955.00
373.40	940.00
373.67	949.00
373.93	941.00
374.19	973.00
374.46	938.00
374.72	932.00
374.98	957.00
375.25	954.00
375.51	958.00
375.77	975.00
376.04	977.00
376.30	974.00
376.56	928.00
376.83	933.00
377.09	958.00
377.35	952.00
377.62	933.00
377.88	929.00
378.14	948.00
378.41	978.00
378.67	937.00
378.93	928.00
379.20	958.00
379.46	950.00
379.72	919.00
379.99	939.00
380.25	948.00
380.51	939.00
380.77	927.00
381.04	943.00
381.30	973.00
381.56	985.00
381.83	936.00
382.09	925.00
382.35	946.00
382.62	972.00
382.88	954.00
383.14	947.00
383.41	941.00
383.67	960.00
383.93	952.00
384.20	955.00
384.46	973.00
384.72	996.00
384.98	907.00
385.25	939.00
385.51	975.00
385.77	956.00
386.04	924.00
386.30	928.00
386.56	984.00
386.82	1013.00
387.09	931.00
387.35	951.00
387.61	1014.00
387.88	989.00
388.14	958.00
388.40	942.00
388.67	945.00
388.93	952.00
389.19	932.00
389.45	933.00
389.72	976.00
389.98	981.00
390.24	936.00
390.51	917.00
390.77	964.00
391.03	970.00
391.29	932.00
391.56	950.00
391.82	988.00
392.08	1009.00
392.35	939.00
392.61	929.00
392.87	966.00
393.13	974.00
393.40	922.00
393.66	927.00
393.92	966.00
394.18	985.00
394.45	913.00
394.71	918.00
394.97	940.00
395.24	934.00
395.50	918.00
395.76	948.00
396.02	978.00
396.29	964.00
396.55	923.00
396.81	878.00
397.07	934.00
397.34	932.00
397.60	913.00
397.86	919.00
398.12	939.00
398.39	989.00
398.65	933.00
398.91	943.00
399.17	957.00
399.44	912.00
399.70	887.00
399.96	922.00
400.22	948.00
400.49	972.00
400.75	931.00
401.01	910.00
401.27	932.00
401.54	962.00
401.80	920.00
402.06	926.00
402.32	968.00
402.59	958.00
402.85	924.00
403.11	922.00
403.37	933.00
403.64	984.00
403.90	934.00
404.16	919.00
404.42	949.00
404.69	928.00
404.95	909.00
405.21	894.00
405.47	930.00
405.74	972.00
406.00	932.00
406.26	936.00
406.52	955.00
406.79	969.00
407.05	922.00
407.31	933.00
407.57	925.00
407.83	942.00
408.10	884.00
408.36	901.00
408.62	939.00
408.88	937.00
409.15	914.00
409.41	885.00
409.67	919.00
409.93	976.00
410.20	940.00
410.46	938.00
410.72	947.00
410.98	957.00
411.24	926.00
411.51	940.00
411.77	925.00
412.03	946.00
412.29	957.00
412.55	990.00
412.82	942.00
413.08	966.00
413.34	952.00
413.60	947.00
413.87	952.00
414.13	974.00
414.39	905.00
414.65	945.00
414.91	956.00
415.18	925.00
415.44	905.00
415.70	909.00
415.96	933.00
416.22	939.00
416.49	924.00
416.75	928.00
417.01	947.00
417.27	951.00
417.53	938.00
417.80	946.00
418.06	963.00
418.32	980.00
418.58	928.00
418.84	900.00
419.11	955.00
419.37	959.00
419.63	922.00
419.89	935.00
420.15	946.00
420.42	944.00
420.68	924.00
420.94	944.00
421.20	959.00
421.46	957.00
421.72	958.00
421.99	939.00
422.25	954.00
422.51	967.00
422.77	945.00
423.03	945.00
423.30	960.00
423.56	980.00
423.82	946.00
424.08	955.00
424.34	962.00
424.60	965.00
424.87	939.00
425.13	932.00
425.39	930.00
425.65	919.00
425.91	910.00
426.18	949.00
426.44	964.00
426.70	937.00
426.96	889.00
427.22	897.00
427.48	923.00
427.75	943.00
428.01	905.00
428.27	935.00
428.53	976.00
428.79	939.00
429.05	911.00
429.32	941.00
429.58	984.00
429.84	925.00
430.10	934.00
430.36	946.00
430.62	977.00
430.88	965.00
431.15	936.00
431.41	939.00
431.67	934.00
431.93	935.00
432.19	898.00
432.45	924.00
432.72	949.00
432.98	928.00
433.24	947.00
433.50	1034.00
433.76	956.00
434.02	917.00
434.28	904.00
434.55	904.00
434.81	949.00
435.07	956.00
435.33	907.00
435.59	924.00
435.85	921.00
436.11	956.00
436.38	925.00
436.64	933.00
436.90	940.00
437.16	938.00
437.42	929.00
437.68	921.00
437.94	966.00
438.21	987.00
438.47	968.00
438.73	943.00
438.99	946.00
439.25	957.00
439.51	916.00
439.77	933.00
440.03	948.00
440.30	949.00
440.56	929.00
440.82	954.00
441.08	972.00
441.34	956.00
441.60	891.00
441.86	928.00
442.12	948.00
442.39	955.00
442.65	924.00
442.91	915.00
443.17	930.00
443.43	954.00
443.69	933.00
443.95	907.00
444.21	926.00
444.47	964.00
444.74	922.00
445.00	944.00
445.26	938.00
445.52	943.00
445.78	922.00
446.04	934.00
446.30	990.00
446.56	978.00
446.82	925.00
447.09	952.00
447.35	958.00
447.61	945.00
447.87	930.00
448.13	934.00
448.39	974.00
448.65	966.00
448.91	916.00
449.17	911.00
449.43	940.00
449.70	941.00
449.96	907.00
450.22	911.00
450.48	958.00
450.74	996.00
451.00	934.00
451.26	932.00
451.52	927.00
451.78	923.00
452.04	912.00
452.31	943.00
452.57	955.00
452.83	942.00
453.09	914.00
453.35	934.00
453.61	956.00
453.87	954.00
454.13	959.00
454.39	962.00
454.65	1006.00
454.91	987.00
455.17	902.00
455.44	918.00
455.70	945.00
455.96	962.00
456.22	925.00
456.48	926.00
456.74	951.00
457.00	903.00
457.26	884.00
457.52	901.00
457.78	933.00
458.04	957.00
458.30	898.00
458.56	907.00
458.82	937.00
459.09	922.00
459.35	875.00
459.61	906.00
459.87	957.00
460.13	971.00
460.39	922.00
460.65	904.00
460.91	956.00
461.17	940.00
461.43	898.00
461.69	898.00
461.95	941.00
462.21	938.00
462.47	931.00
462.73	960.00
462.99	978.00
463.26	947.00
463.52	906.00
463.78	899.00
464.04	933.00
464.30	962.00
464.56	926.00
464.82	942.00
465.08	982.00
465.34	986.00
465.60	926.00
465.86	936.00
466.12	935.00
466.38	937.00
466.64	909.00
466.90	933.00
467.16	940.00
467.42	955.00
467.68	908.00
467.94	944.00
468.20	977.00
468.46	941.00
468.72	917.00
468.98	944.00
469.25	952.00
469.51	915.00
469.77	930.00
470.03	931.00
470.29	938.00
470.55	946.00
470.81	927.00
471.07	927.00
471.33	942.00
471.59	962.00
471.85	943.00
472.11	946.00
472.37	964.00
472.63	952.00
472.89	942.00
473.15	920.00
473.41	946.00
473.67	950.00
473.93	911.00
474.19	909.00
474.45	931.00
474.71	931.00
474.97	903.00
475.23	912.00
475.49	921.00
475.75	925.00
476.01	918.00
476.27	930.00
476.53	958.00
476.79	964.00
477.05	919.00
477.31	918.00
477.57	955.00
477.83	942.00
478.09	918.00
478.35	938.00
478.61	965.00
478.87	977.00
479.13	918.00
479.39	946.00
479.65	961.00
479.91	963.00
480.17	932.00
480.43	947.00
480.69	925.00
480.95	956.00
481.21	931.00
481.47	933.00
481.73	935.00
481.99	929.00
482.25	883.00
482.51	903.00
482.77	958.00
483.03	947.00
483.29	916.00
483.55	938.00
483.81	964.00
484.07	953.00
484.33	909.00
484.59	910.00
484.85	953.00
485.11	958.00
485.37	929.00
485.63	918.00
485.89	934.00
486.15	927.00
486.41	909.00
486.67	911.00
486.93	957.00
487.19	938.00
487.45	912.00
487.71	913.00
487.97	947.00
488.23	958.00
488.49	905.00
488.75	892.00
489.01	951.00
489.27	989.00
489.53	926.00
489.79	919.00
490.05	956.00
490.31	970.00
490.57	946.00
490.83	962.00
491.08	930.00
491.34	929.00
491.60	902.00
491.86	937.00
492.12	975.00
492.38	975.00
492.64	902.00
492.90	901.00
493.16	963.00
493.42	923.00
493.68	903.00
493.94	925.00
494.20	919.00
494.46	937.00
494.72	916.00
494.98	921.00
495.24	928.00
495.50	935.00
495.76	934.00
496.02	942.00
496.28	952.00
496.54	973.00
496.80	933.00
497.05	901.00
497.31	968.00
497.57	961.00
497.83	927.00
498.09	936.00
498.35	953.00
498.61	947.00
498.87	938.00
499.13	947.00
499.39	950.00
499.65	940.00
499.91	934.00
500.17	907.00
500.43	1019.00
500.69	1032.00
500.95	925.00
501.20	948.00
501.46	969.00
501.72	970.00
501.98	966.00
502.24	955.00
502.50	980.00
502.76	932.00
503.02	922.00
503.28	931.00
503.54	978.00
503.80	989.00
504.06	960.00
504.32	957.00
504.58	949.00
504.83	961.00
505.09	904.00
505.35	938.00
505.61	928.00
505.87	951.00
506.13	929.00
506.39	917.00
506.65	971.00
506.91	975.00
507.17	927.00
507.43	926.00
507.68	937.00
507.94	967.00
508.20	916.00
508.46	897.00
508.72	968.00
508.98	986.00
509.24	918.00
509.50	947.00
509.76	927.00
510.02	949.00
510.28	921.00
510.53	930.00
510.79	958.00
511.05	934.00
511.31	906.00
511.57	930.00
511.83	962.00
512.09	957.00
512.35	905.00
512.61	939.00
512.87	969.00
513.12	957.00
513.38	901.00
513.64	938.00
513.90	962.00
514.16	995.00
514.42	938.00
514.68	940.00
514.94	976.00
515.20	964.00
515.45	923.00
515.71	922.00
515.97	940.00
516.23	953.00
516.49	921.00
516.75	928.00
517.01	953.00
517.27	946.00
517.53	910.00
517.78	933.00
518.04	954.00
518.30	935.00
518.56	908.00
518.82	941.00
519.08	980.00
519.34	937.00
519.60	924.00
519.85	934.00
520.11	935.00
520.37	935.00
520.63	937.00
520.89	956.00
521.15	951.00
521.41	931.00
521.66	916.00
521.92	944.00
522.18	975.00
522.44	985.00
522.70	937.00
522.96	908.00
523.22	952.00
523.48	945.00
523.73	930.00
523.99	921.00
524.25	990.00
524.51	969.00
524.77	902.00
525.03	914.00
525.29	944.00
525.54	951.00
525.80	910.00
526.06	918.00
526.32	926.00
526.58	929.00
526.84	903.00
527.09	904.00
527.35	925.00
527.61	915.00
527.87	909.00
528.13	940.00
528.39	920.00
528.65	915.00
528.90	884.00
529.16	916.00
529.42	906.00
529.68	920.00
529.94	906.00
530.20	911.00
530.45	906.00
530.71	933.00
530.97	897.00
531.23	924.00
531.49	948.00
531.75	951.00
532.00	934.00
532.26	921.00
532.52	963.00
532.78	947.00
533.04	920.00
533.30	919.00
533.55	950.00
533.81	948.00
534.07	882.00
534.33	914.00
534.59	956.00
534.85	942.00
535.10	887.00
535.36	905.00
535.62	923.00
535.88	940.00
536.14	898.00
536.39	919.00
536.65	976.00
536.91	982.00
537.17	904.00
537.43	916.00
537.69	970.00
537.94	962.00
538.20	913.00
538.46	942.00
538.72	950.00
538.98	954.00
539.23	919.00
539.49	905.00
539.75	949.00
540.01	941.00
540.27	917.00
540.52	956.00
540.78	952.00
541.04	956.00
541.30	904.00
541.56	899.00
541.81	990.00
542.07	1020.00
542.33	937.00
542.59	932.00
542.85	955.00
543.10	931.00
543.36	896.00
543.62	935.00
543.88	937.00
544.14	933.00
544.39	919.00
544.65	935.00
544.91	965.00
545.17	939.00
545.43	915.00
545.68	917.00
545.94	946.00
546.20	952.00
546.46	926.00
546.71	921.00
546.97	945.00
547.23	959.00
547.49	918.00
547.75	924.00
548.00	951.00
548.26	964.00
548.52	902.00
548.78	924.00
549.03	930.00
549.29	943.00
549.55	887.00
549.81	921.00
550.07	955.00
550.32	944.00
550.58	913.00
550.84	935.00
551.10	937.00
551.35	940.00
551.61	928.00
551.87	942.00
552.13	938.00
552.39	923.00
552.64	894.00
552.90	922.00
553.16	941.00
553.42	941.00
553.67	908.00
553.93	923.00
554.19	960.00
554.45	981.00
554.70	931.00
554.96	922.00
555.22	928.00
555.48	951.00
555.73	927.00
555.99	928.00
556.25	944.00
556.51	942.00
556.76	930.00
557.02	954.00
557.28	968.00
557.54	950.00
557.79	913.00
558.05	945.00
558.31	924.00
558.57	956.00
558.82	928.00
559.08	892.00
559.34	897.00
559.60	953.00
559.85	937.00
560.11	941.00
560.37	949.00
560.63	927.00
560.88	900.00
561.14	901.00
561.40	950.00
561.66	914.00
561.91	900.00
562.17	926.00
562.43	939.00
562.68	964.00
562.94	938.00
563.20	934.00
563.46	958.00
563.71	977.00
563.97	920.00
564.23	937.00
564.49	964.00
564.74	934.00
565.00	910.00
565.26	916.00
565.51	930.00
565.77	917.00
566.03	907.00
566.29	917.00
566.54	922.00
566.80	926.00
567.06	900.00
567.31	942.00
567.57	959.00
567.83	939.00
568.09	931.00
568.34	918.00
568.60	935.00
568.86	964.00
569.11	946.00
569.37	914.00
569.63	955.00
569.89	962.00
570.14	881.00
570.40	909.00
570.66	929.00
570.91	923.00
571.17	884.00
571.43	933.00
571.69	968.00
571.94	979.00
572.20	908.00
572.46	929.00
572.71	958.00
572.97	934.00
573.23	895.00
573.48	924.00
573.74	956.00
574.00	970.00
574.26	902.00
574.51	926.00
574.77	985.00
575.03	941.00
575.28	916.00
575.54	921.00
575.80	927.00
576.05	959.00
576.31	897.00
576.57	891.00
576.82	950.00
577.08	942.00
577.34	924.00
577.59	932.00
577.85	974.00
578.11	927.00
578.37	909.00
578.62	918.00
578.88	972.00
579.14	966.00
579.39	922.00
579.65	918.00
579.91	933.00
580.16	959.00
580.42	926.00
580.68	926.00
580.93	944.00
581.19	935.00
581.45	887.00
581.70	915.00
581.96	942.00
582.22	953.00
582.47	934.00
582.73	940.00
582.99	970.00
583.24	954.00
583.50	908.00
583.76	911.00
584.01	932.00
584.27	957.00
584.53	935.00
584.78	939.00
585.04	927.00
585.30	957.00
585.55	948.00
585.81	920.00
586.07	961.00
586.32	973.00
586.58	936.00
586.83	930.00
587.09	962.00
587.35	968.00
587.60	939.00
587.86	928.00
588.12	931.00
588.37	956.00
588.63	930.00
588.89	954.00
589.14	967.00
589.40	975.00
589.66	926.00
589.91	933.00
590.17	954.00
590.43	916.00
590.68	890.00
590.94	916.00
591.19	955.00
591.45	963.00
591.71	929.00
591.96	939.00
592.22	966.00
592.48	967.00
592.73	916.00
592.99	921.00
593.25	938.00
593.50	953.00
593.76	904.00
594.01	921.00
594.27	954.00
594.53	952.00
594.78	907.00
595.04	933.00
595.30	963.00
595.55	958.00
595.81	901.00
596.06	958.00
596.32	990.00
596.58	970.00
596.83	931.00
597.09	965.00
597.35	973.00
597.60	943.00
597.86	912.00
598.11	949.00
598.37	974.00
598.63	976.00
598.88	927.00
599.14	936.00
599.39	989.00
599.65	956.00
599.91	898.00
600.16	936.00
600.42	969.00
600.67	990.00
600.93	929.00
601.19	970.00
601.44	1020.00
601.70	999.00
601.95	948.00
602.21	982.00
602.47	957.00
602.72	988.00
602.98	925.00
603.23	956.00
603.49	990.00
603.75	1014.00
604.00	963.00
604.26	969.00
604.51	988.00
604.77	1029.00
605.03	960.00
605.28	966.00
605.54	1034.00
605.79	1034.00
606.05	958.00
606.31	972.00
606.56	994.00
606.82	1006.00
607.07	975.00
607.33	1019.00
607.59	1062.00
607.84	1040.00
608.10	996.00
608.35	1008.00
608.61	1045.00
608.86	1052.00
609.12	1016.00
609.38	1043.00
609.63	1066.00
609.89	1040.00
610.14	992.00
610.40	1014.00
610.65	1032.00
610.91	1049.00
611.17	1029.00
611.42	1046.00
611.68	1072.00
611.93	1094.00
612.19	1068.00
612.44	1071.00
612.70	1089.00
612.96	1071.00
613.21	1063.00
613.47	1064.00
613.72	1113.00
613.98	1152.00
614.23	1150.00
614.49	1160.00
614.75	1176.00
615.00	1172.00
615.26	1159.00
615.51	1150.00
615.77	1178.00
616.02	1200.00
616.28	1191.00
616.53	1213.00
616.79	1216.00
617.05	1233.00
617.30	1212.00
617.56	1236.00
617.81	1280.00
618.07	1256.00
618.32	1251.00
618.58	1320.00
618.83	1338.00
619.09	1347.00
619.34	1315.00
619.60	1322.00
619.86	1379.00
620.11	1428.00
620.37	1411.00
620.62	1436.00
620.88	1494.00
621.13	1499.00
621.39	1484.00
621.64	1537.00
621.90	1630.00
622.15	1641.00
622.41	1628.00
622.66	1673.00
622.92	1736.00
623.18	1764.00
623.43	1738.00
623.69	1769.00
623.94	1884.00
624.20	1931.00
624.45	1952.00
624.71	2015.00
624.96	2065.00
625.22	2227.00
625.47	2275.00
625.73	2357.00
625.98	2660.00
626.24	2840.00
626.49	2932.00
626.75	3048.00
627.00	3131.00
627.26	3177.00
627.51	3288.00
627.77	3464.00
628.02	3519.00
628.28	3548.00
628.53	3536.00
628.79	3628.00
629.05	3841.00
629.30	4402.00
629.56	4995.00
629.81	5178.00
630.07	5242.00
630.32	5209.00
630.58	5319.00
630.83	5646.00
631.09	6063.00
631.34	6015.00
631.60	5794.00
631.85	6233.00
632.11	7093.00
632.36	8050.00
632.62	8522.00
632.87	9161.00
633.13	9425.00
633.38	9132.00
633.64	9097.00
633.89	8593.00
634.15	8055.00
634.40	8730.00
634.66	10701.00
634.91	12032.00
635.17	11220.00
635.42	10794.00
635.68	11237.00
635.93	10880.00
636.18	10561.00
636.44	10721.00
636.69	11347.00
636.95	12488.00
637.20	12126.00
637.46	11488.00
637.71	11634.00
637.97	10214.00
638.22	9116.00
638.48	8384.00
638.73	7395.00
638.99	6617.00
639.24	6577.00
639.50	6621.00
639.75	6629.00
640.01	6841.00
640.26	6729.00
640.52	5881.00
640.77	5150.00
641.03	4881.00
641.28	4402.00
641.54	3884.00
641.79	3470.00
642.04	3346.00
642.30	3219.00
642.55	3207.00
642.81	3135.00
643.06	2804.00
643.32	2574.00
643.57	2561.00
643.83	2444.00
644.08	2394.00
644.34	2385.00
644.59	2331.00
644.85	2251.00
645.10	2246.00
645.35	2114.00
645.61	1970.00
645.86	1830.00
646.12	1805.00
646.37	1802.00
646.63	1713.00
646.88	1607.00
647.14	1573.00
647.39	1492.00
647.65	1494.00
647.90	1435.00
648.15	1422.00
648.41	1408.00
648.66	1399.00
648.92	1323.00
649.17	1337.00
649.43	1327.00
649.68	1268.00
649.94	1235.00
650.19	1206.00
650.44	1219.00
650.70	1217.00
650.95	1165.00
651.21	1182.00
651.46	1229.00
651.72	1206.00
651.97	1148.00
652.23	1129.00
652.48	1105.00
652.73	1096.00
652.99	1071.00
653.24	1082.00
653.50	1088.00
653.75	1076.00
654.01	1076.00
654.26	1084.00
654.51	1085.00
654.77	1085.00
655.02	1050.00
655.28	1018.00
655.53	1028.00
655.79	1041.00
656.04	1027.00
656.29	1024.00
656.55	1010.00
656.80	1033.00
657.06	990.00
657.31	996.00
657.56	1000.00
657.82	1005.00
658.07	986.00
658.33	989.00
658.58	996.00
658.84	1032.00
659.09	994.00
659.34	994.00
659.60	994.00
659.85	980.00
660.11	957.00
660.36	973.00
660.61	965.00
660.87	955.00
661.12	938.00
661.38	948.00
661.63	945.00
661.88	976.00
662.14	975.00
662.39	972.00
662.65	1012.00
662.90	1027.00
663.15	944.00
663.41	942.00
663.66	1002.00
663.92	1005.00
664.17	931.00
664.42	960.00
664.68	978.00
664.93	955.00
665.19	924.00
665.44	928.00
665.69	932.00
665.95	951.00
666.20	915.00
666.45	955.00
666.71	953.00
666.96	963.00
667.22	913.00
667.47	935.00
667.72	928.00
667.98	942.00
668.23	929.00
668.49	971.00
668.74	966.00
668.99	963.00
669.25	924.00
669.50	909.00
669.75	931.00
670.01	951.00
670.26	901.00
670.52	923.00
670.77	964.00
671.02	960.00
671.28	914.00
671.53	938.00
671.78	968.00
672.04	962.00
672.29	918.00
672.54	919.00
672.80	945.00
673.05	957.00
673.31	921.00
673.56	967.00
673.81	985.00
674.07	955.00
674.32	937.00
674.57	927.00
674.83	950.00
675.08	962.00
675.33	934.00
675.59	930.00
675.84	951.00
676.09	928.00
676.35	907.00
676.60	934.00
676.86	954.00
677.11	981.00
677.36	940.00
677.62	955.00
677.87	983.00
678.12	993.00
678.38	928.00
678.63	940.00
678.88	984.00
679.14	985.00
679.39	910.00
679.64	938.00
679.90	952.00
680.15	976.00
680.40	954.00
680.66	924.00
680.91	935.00
681.16	948.00
681.42	922.00
681.67	925.00
681.92	937.00
682.18	978.00
682.43	906.00
682.68	915.00
682.94	922.00
683.19	923.00
683.44	910.00
683.70	942.00
683.95	932.00
684.20	933.00
684.46	927.00
684.71	939.00
684.96	933.00
685.22	953.00
685.47	924.00
685.72	941.00
685.98	954.00
686.23	900.00
686.48	906.00
686.74	941.00
686.99	962.00
687.24	958.00
687.50	909.00
687.75	898.00
688.00	933.00
688.25	942.00
688.51	942.00
688.76	971.00
689.01	932.00
689.27	921.00
689.52	874.00
689.77	898.00
690.03	911.00
690.28	929.00
690.53	921.00
690.79	936.00
691.04	931.00
691.29	940.00
691.54	905.00
691.80	937.00
692.05	945.00
692.30	950.00
692.56	912.00
692.81	929.00
693.06	922.00
693.32	918.00
693.57	906.00
693.82	940.00
694.07	942.00
694.33	945.00
694.58	892.00
694.83	946.00
695.09	931.00
695.34	964.00
695.59	934.00
695.84	916.00
696.10	953.00
696.35	957.00
696.60	901.00
696.86	926.00
697.11	946.00
697.36	951.00
697.61	908.00
697.87	937.00
698.12	909.00
698.37	922.00
698.63	931.00
698.88	920.00
699.13	926.00
699.38	913.00
699.64	898.00
699.89	922.00
700.14	932.00
700.39	930.00
700.65	910.00
700.90	940.00
701.15	939.00
701.40	950.00
701.66	909.00
701.91	916.00
702.16	927.00
702.42	915.00
702.67	892.00
702.92	907.00
703.17	925.00
703.43	932.00
703.68	905.00
703.93	942.00
704.18	986.00
704.44	947.00
704.69	913.00
704.94	929.00
705.19	926.00
705.45	951.00
705.70	923.00
705.95	917.00
706.20	928.00
706.46	936.00
706.71	919.00
706.96	915.00
707.21	932.00
707.47	929.00
707.72	940.00
707.97	940.00
708.22	952.00
708.48	972.00
708.73	913.00
708.98	890.00
709.23	933.00
709.49	932.00
709.74	901.00
709.99	926.00
710.24	922.00
710.50	939.00
710.75	924.00
711.00	941.00
711.25	942.00
711.50	940.00
711.76	915.00
712.01	921.00
712.26	904.00
712.51	944.00
712.77	915.00
713.02	929.00
713.27	914.00
713.52	933.00
713.78	928.00
714.03	939.00
714.28	912.00
714.53	944.00
714.78	925.00
715.04	944.00
715.29	952.00
715.54	951.00
715.79	910.00
716.05	937.00
716.30	937.00
716.55	957.00
716.80	918.00
717.05	954.00
717.31	952.00
717.56	948.00
717.81	906.00
718.06	903.00
718.31	910.00
718.57	933.00
718.82	915.00
719.07	944.00
719.32	922.00
719.57	941.00
719.83	904.00
720.08	931.00
720.33	906.00
720.58	911.00
720.83	891.00
721.09	950.00
721.34	949.00
721.59	961.00
721.84	888.00
722.09	918.00
722.35	938.00
722.60	916.00
722.85	905.00
723.10	941.00
723.35	910.00
723.61	940.00
723.86	934.00
724.11	924.00
724.36	927.00
724.61	919.00
724.87	909.00
725.12	914.00
725.37	910.00
725.62	905.00
725.87	890.00
726.12	892.00
726.38	917.00
726.63	942.00
726.88	908.00
727.13	936.00
727.38	942.00
727.64	928.00
727.89	895.00
728.14	905.00
728.39	881.00
728.64	922.00
728.89	907.00
729.15	923.00
729.40	953.00
729.65	957.00
729.90	900.00
730.15	913.00
730.40	938.00
730.66	933.00
730.91	899.00
731.16	940.00
731.41	931.00
731.66	923.00
731.91	906.00
732.17	940.00
732.42	951.00
732.67	955.00
732.92	900.00
733.17	936.00
733.42	942.00
733.68	949.00
733.93	905.00
734.18	918.00
734.43	907.00
734.68	909.00
734.93	913.00
735.18	931.00
735.44	949.00
735.69	940.00
735.94	901.00
736.19	920.00
736.44	917.00
736.69	963.00
736.95	905.00
737.20	928.00
737.45	935.00
737.70	942.00
737.95	913.00
738.20	947.00
738.45	951.00
738.70	940.00
738.96	910.00
739.21	933.00
739.46	941.00
739.71	965.00
739.96	910.00
740.21	944.00
740.46	1007.00
740.72	972.00
740.97	903.00
741.22	929.00
741.47	909.00
741.72	948.00
741.97	912.00
742.22	931.00
742.47	966.00
742.73	926.00
742.98	908.00
743.23	903.00
743.48	896.00
743.73	934.00
743.98	914.00
744.23	916.00
744.48	933.00
744.74	932.00
744.99	898.00
745.24	939.00
745.49	922.00
745.74	954.00
745.99	906.00
746.24	915.00
746.49	908.00
746.74	890.00
747.00	928.00
747.25	937.00
747.50	900.00
747.75	920.00
748.00	887.00
748.25	898.00
748.50	925.00
748.75	961.00
749.00	945.00
749.26	961.00
749.51	954.00
749.76	942.00
750.01	890.00
750.26	931.00
750.51	945.00
750.76	945.00
751.01	921.00
751.26	936.00
751.51	926.00
751.77	962.00
752.02	922.00
752.27	904.00
752.52	926.00
752.77	947.00
753.02	916.00
753.27	937.00
753.52	922.00
753.77	917.00
754.02	910.00
754.27	925.00
754.52	909.00
754.78	934.00
755.03	924.00
755.28	933.00
755.53	951.00
755.78	942.00
756.03	901.00
756.28	925.00
756.53	940.00
756.78	944.00
757.03	898.00
757.28	925.00
757.53	938.00
757.79	902.00
758.04	882.00
758.29	953.00
758.54	964.00
758.79	956.00
759.04	907.00
759.29	902.00
759.54	914.00
759.79	920.00
760.04	918.00
760.29	906.00
760.54	925.00
760.79	938.00
761.04	910.00
761.29	919.00
761.55	912.00
761.80	935.00
762.05	899.00
762.30	933.00
762.55	937.00
762.80	955.00
763.05	935.00
763.30	947.00
763.55	968.00
763.80	949.00
764.05	886.00
764.30	914.00
764.55	959.00
764.80	934.00
765.05	905.00
765.30	927.00
765.55	934.00
765.80	924.00
766.05	885.00
766.30	923.00
766.56	927.00
766.81	951.00
767.06	924.00
767.31	906.00
767.56	902.00
767.81	930.00
768.06	917.00
768.31	940.00
768.56	931.00
768.81	972.00
769.06	902.00
769.31	917.00
769.56	920.00
769.81	935.00
770.06	894.00
770.31	913.00
770.56	928.00
770.81	923.00
771.06	887.00
771.31	926.00
771.56	927.00
771.81	949.00
772.06	897.00
772.31	941.00
772.56	944.00
772.81	961.00
773.06	911.00
773.31	928.00
773.56	911.00
773.81	907.00
774.06	886.00
774.31	909.00
774.56	939.00
774.81	957.00
775.06	932.00
775.31	955.00
775.56	956.00
775.81	924.00
776.06	907.00
776.31	920.00
776.56	930.00
776.82	941.00
777.07	896.00
777.32	915.00
777.57	932.00
777.82	948.00
778.07	919.00
778.32	897.00
778.57	918.00
778.82	946.00
779.07	913.00
779.32	931.00
779.57	904.00
779.82	904.00
780.07	910.00
780.32	926.00
780.56	920.00
780.81	956.00
781.06	912.00
781.31	928.00
781.56	949.00
781.81	948.00
782.06	915.00
782.31	946.00
782.56	924.00
782.81	938.00
783.06	893.00
783.31	922.00
783.56	925.00
783.81	957.00
784.06	913.00
784.31	919.00
784.56	904.00
784.81	966.00
785.06	934.00
785.31	947.00
785.56	915.00
785.81	926.00
786.06	896.00
786.31	911.00
786.56	919.00
786.81	933.00
787.06	922.00
787.31	944.00
787.56	923.00
787.81	916.00
788.06	903.00
788.31	938.00
788.56	904.00
788.81	944.00
789.06	935.00
789.31	920.00
789.56	930.00
789.81	927.00
790.06	894.00
790.31	941.00
790.56	933.00
790.80	921.00
791.05	877.00
791.30	877.00
791.55	896.00
791.80	934.00
792.05	910.00
792.30	921.00
792.55	928.00
792.80	930.00
793.05	903.00
793.30	908.00
793.55	936.00
793.80	937.00
794.05	912.00
794.30	925.00
794.55	930.00
794.80	935.00
795.05	896.00
795.30	906.00
795.54	903.00
795.79	929.00
796.04	899.00
796.29	936.00
796.54	917.00
796.79	943.00
797.04	916.00
797.29	918.00
797.54	961.00
797.79	948.00
798.04	919.00
798.29	916.00
798.54	896.00
798.79	932.00
799.04	896.00
799.29	922.00
799.53	915.00
799.78	916.00
800.03	901.00
800.28	900.00
800.53	912.00
800.78	952.00
801.03	926.00
801.28	921.00
801.53	924.00
801.78	942.00
802.03	905.00
802.28	922.00
802.52	948.00
802.77	942.00
803.02	932.00
803.27	929.00
803.52	903.00
803.77	934.00
804.02	926.00
804.27	948.00
804.52	951.00
804.77	957.00
805.02	922.00
805.27	941.00
805.51	931.00
805.76	954.00
806.01	912.00
806.26	918.00
806.51	919.00
806.76	947.00
807.01	921.00
807.26	905.00
807.51	952.00
807.76	907.00
808.00	888.00
808.25	920.00
808.50	921.00
808.75	899.00
809.00	900.00
809.25	925.00
809.50	917.00
809.75	943.00
810.00	914.00
810.24	909.00
810.49	871.00
810.74	880.00
810.99	898.00
811.24	914.00
811.49	922.00
811.74	937.00
811.99	875.00
812.24	930.00
812.48	921.00
812.73	910.00
812.98	873.00
813.23	895.00
813.48	913.00
813.73	909.00
813.98	861.00
814.23	892.00
814.47	904.00
814.72	913.00
814.97	886.00
815.22	935.00
815.47	911.00
815.72	922.00
815.97	883.00
816.22	914.00
816.46	916.00
816.71	936.00
816.96	916.00
817.21	934.00
817.46	908.00
817.71	945.00
817.96	913.00
818.20	902.00
818.45	890.00
818.70	925.00
818.95	891.00
819.20	926.00
819.45	933.00
819.70	932.00
819.94	892.00
820.19	913.00
820.44	914.00
820.69	938.00
820.94	897.00
821.19	936.00
821.44	983.00
821.68	991.00
821.93	921.00
822.18	926.00
822.43	942.00
822.68	953.00
822.93	898.00
823.17	903.00
823.42	937.00
823.67	925.00
823.92	890.00
824.17	919.00
824.42	916.00
824.67	942.00
824.91	910.00
825.16	913.00
825.41	938.00
825.66	938.00
825.91	895.00
826.16	902.00
826.40	917.00
826.65	933.00
826.90	884.00
827.15	913.00
827.40	915.00
827.65	952.00
827.89	873.00
828.14	910.00
828.39	933.00
828.64	946.00
828.89	889.00
829.13	907.00
829.38	908.00
829.63	935.00
829.88	904.00
830.13	875.00
830.38	890.00
830.62	916.00
830.87	905.00
831.12	920.00
831.37	938.00
831.62	945.00
831.86	917.00
832.11	914.00
832.36	896.00
832.61	944.00
832.86	920.00
833.10	926.00
833.35	923.00
833.60	942.00
833.85	917.00
834.10	936.00
834.35	955.00
834.59	949.00
834.84	925.00
835.09	939.00
835.34	894.00
835.59	918.00
835.83	914.00
836.08	926.00
836.33	940.00
836.58	962.00
836.83	915.00
837.07	930.00
837.32	927.00
837.57	915.00
837.82	909.00
838.06	925.00
838.31	941.00
838.56	965.00
838.81	891.00
839.06	919.00
839.30	915.00
839.55	944.00
839.80	901.00
840.05	934.00
840.30	949.00
840.54	950.00
840.79	902.00
841.04	927.00
841.29	940.00
841.53	945.00
841.78	916.00
842.03	892.00
842.28	897.00
842.53	910.00
842.77	914.00
843.02	938.00
843.27	930.00
843.52	926.00
843.76	905.00
844.01	928.00
844.26	910.00
844.51	942.00
844.75	931.00
845.00	907.00
845.25	926.00
845.50	923.00
845.75	900.00
845.99	932.00
846.24	928.00
846.49	936.00
846.74	886.00
846.98	914.00
847.23	910.00
847.48	931.00
847.73	904.00
847.97	936.00
848.22	947.00
848.47	937.00
848.72	900.00
848.96	895.00
849.21	922.00
849.46	919.00
849.71	905.00
849.95	909.00
850.20	910.00
850.45	930.00
850.70	888.00
850.94	910.00
851.19	920.00
851.44	933.00
851.69	879.00
851.93	923.00
852.18	948.00
852.43	946.00
852.68	912.00
852.92	961.00
853.17	966.00
853.42	937.00
853.66	919.00
853.91	955.00
854.16	926.00
854.41	975.00
854.65	919.00
854.90	941.00
855.15	921.00
855.40	940.00
855.64	926.00
855.89	911.00
856.14	903.00
856.39	914.00
856.63	904.00
856.88	910.00
857.13	914.00
857.37	910.00
857.62	877.00
857.87	886.00
858.12	918.00
858.36	939.00
858.61	871.00
858.86	918.00
859.10	948.00
859.35	924.00
859.60	880.00
859.85	888.00
860.09	890.00
860.34	923.00
860.59	918.00
860.83	929.00
861.08	921.00
861.33	956.00
861.58	903.00
861.82	902.00
862.07	929.00
862.32	936.00
862.56	883.00
862.81	883.00
863.06	915.00
863.30	925.00
863.55	913.00
863.80	930.00
864.05	914.00
864.29	902.00
864.54	914.00
864.79	936.00
865.03	929.00
865.28	933.00
865.53	909.00
865.77	891.00
866.02	920.00
866.27	949.00
866.51	936.00
866.76	903.00
867.01	884.00
867.26	927.00
867.50	897.00
867.75	888.00
868.00	926.00
868.24	940.00
868.49	899.00
868.74	901.00
868.98	905.00
869.23	918.00
869.48	904.00
869.72	904.00
869.97	916.00
870.22	930.00
870.46	900.00
870.71	914.00
870.96	934.00
871.20	934.00
871.45	875.00
871.70	915.00
871.94	958.00
872.19	953.00
872.44	929.00
872.68	917.00
872.93	906.00
873.18	933.00
873.42	907.00
873.67	927.00
873.92	951.00
874.16	918.00
874.41	906.00
874.66	924.00
874.90	923.00
875.15	961.00
875.40	921.00
875.64	920.00
875.89	920.00
876.14	924.00
876.38	912.00
876.63	914.00
876.88	938.00
877.12	947.00
877.37	877.00
877.62	919.00
877.86	911.00
878.11	927.00
878.36	889.00
878.60	919.00
878.85	908.00
879.09	944.00
879.34	900.00
879.59	921.00
879.83	973.00
880.08	983.00
880.33	922.00
880.57	916.00
880.82	919.00
881.07	944.00
881.31	923.00
881.56	910.00
881.80	926.00
882.05	924.00
882.30	890.00
882.54	915.00
882.79	949.00
883.04	974.00
883.28	937.00
883.53	905.00
883.77	931.00
884.02	931.00
884.27	895.00
884.51	897.00
884.76	902.00
885.01	956.00
885.25	894.00
885.50	917.00
885.74	905.00
885.99	942.00
886.24	909.00
886.48	902.00
886.73	926.00
886.98	947.00
887.22	915.00
887.47	932.00
887.71	946.00
887.96	944.00
888.21	906.00
888.45	898.00
888.70	913.00
888.94	959.00
889.19	892.00
889.44	921.00
889.68	926.00
889.93	949.00
890.17	908.00
890.42	898.00
890.67	950.00
890.91	1032.00
891.16	920.00
891.40	902.00
891.65	896.00
891.90	945.00
892.14	892.00
892.39	926.00
892.63	926.00
892.88	958.00
893.13	920.00
893.37	905.00
893.62	899.00
893.86	937.00
894.11	898.00
894.36	922.00
894.60	917.00
894.85	926.00
895.09	900.00
895.34	946.00
895.59	914.00
895.83	914.00
896.08	896.00
896.32	900.00
896.57	918.00
896.81	925.00
897.06	906.00
897.31	916.00
897.55	938.00
897.80	922.00
898.04	874.00
898.29	905.00
898.53	925.00
898.78	947.00
899.03	913.00
899.27	910.00
899.52	935.00
899.76	942.00
900.01	904.00
900.25	928.00
900.50	945.00
900.75	964.00
900.99	925.00
901.24	1001.00
901.48	934.00
901.73	934.00
901.97	898.00
902.22	932.00
902.47	929.00
902.71	931.00
902.96	893.00
903.20	932.00
903.45	944.00
903.69	945.00
903.94	926.00
904.18	886.00
904.43	905.00
904.68	928.00
904.92	888.00
905.17	910.00
905.41	936.00
905.66	945.00
905.90	939.00
906.15	917.00
906.39	939.00
906.64	933.00
906.88	896.00
907.13	905.00
907.38	945.00
907.62	954.00
907.87	900.00
908.11	924.00
908.36	902.00
908.60	914.00
908.85	872.00
909.09	906.00
909.34	917.00
909.58	931.00
909.83	903.00
910.07	906.00
910.32	952.00
910.56	954.00
910.81	888.00
911.06	930.00
911.30	933.00
911.55	931.00
911.79	892.00
912.04	902.00
912.28	906.00
912.53	938.00
912.77	924.00
913.02	931.00
913.26	900.00
913.51	927.00
913.75	902.00
914.00	916.00
914.24	923.00
914.49	923.00
914.73	902.00
914.98	952.00
915.22	969.00
915.47	936.00
915.71	899.00
915.96	934.00
916.20	936.00
916.45	898.00
916.69	886.00
916.94	899.00
917.18	934.00
917.43	928.00
917.67	890.00
917.92	906.00
918.16	931.00
918.41	936.00
918.65	893.00
918.90	896.00
919.14	866.00
919.39	893.00
919.63	897.00
919.88	885.00
920.12	936.00
920.37	930.00
920.61	881.00
920.86	915.00
921.10	926.00
921.35	914.00
921.59	901.00
921.84	932.00
922.08	938.00
922.33	948.00
922.57	898.00
922.82	896.00
923.06	927.00
923.31	965.00
923.55	880.00
923.80	883.00
924.04	913.00
924.29	953.00
924.53	903.00
924.78	915.00
925.02	903.00
925.27	927.00
925.51	902.00
925.76	932.00
926.00	918.00
926.25	908.00
926.49	898.00
926.73	923.00
926.98	930.00
927.22	951.00
927.47	924.00
927.71	919.00
927.96	949.00
928.20	945.00
928.45	913.00
928.69	969.00
928.94	950.00
929.18	927.00
929.43	917.00
929.67	929.00
929.91	922.00
930.16	945.00
930.40	881.00
930.65	869.00
930.89	925.00
931.14	949.00
931.38	909.00
931.63	929.00
931.87	920.00
932.12	940.00
932.36	890.00
932.60	899.00
932.85	918.00
933.09	909.00
933.34	855.00
933.58	915.00
933.83	911.00
934.07	938.00
934.32	918.00
934.56	933.00
934.80	955.00
935.05	964.00
935.29	910.00
935.54	927.00
935.78	939.00
936.03	926.00
936.27	890.00
936.52	905.00
936.76	908.00
937.00	927.00
937.25	899.00
937.49	933.00
937.74	954.00
937.98	944.00
938.23	881.00
938.47	887.00
938.71	916.00
938.96	926.00
939.20	884.00
939.45	903.00
939.69	913.00
939.94	936.00
940.18	887.00
940.42	917.00
940.67	936.00
940.91	929.00
941.16	888.00
941.40	896.00
941.64	906.00
941.89	938.00
942.13	905.00
942.38	928.00
942.62	1004.00
942.87	960.00
943.11	915.00
943.35	898.00
943.60	922.00
943.84	976.00
944.09	933.00
944.33	933.00
944.57	932.00
944.82	922.00
945.06	887.00
945.31	923.00
945.55	910.00
945.79	939.00
946.04	904.00
946.28	907.00
946.53	916.00
946.77	925.00
947.01	885.00
947.26	936.00
947.50	902.00
947.75	928.00
947.99	909.00
948.23	934.00
948.48	920.00
948.72	920.00
948.97	907.00
949.21	910.00
949.45	920.00
949.70	942.00
949.94	921.00
950.18	928.00
950.43	936.00
950.67	926.00
950.92	894.00
951.16	913.00
951.40	915.00
951.65	927.00
951.89	909.00
952.13	929.00
952.38	939.00
952.62	938.00
952.87	901.00
953.11	945.00
953.35	959.00
953.60	928.00
953.84	849.00
954.08	868.00
954.33	919.00
954.57	937.00
954.82	913.00
955.06	902.00
955.30	911.00
955.55	923.00
955.79	891.00
956.03	912.00
956.28	915.00
956.52	925.00
956.76	914.00
957.01	932.00
957.25	919.00
957.50	942.00
957.74	893.00
957.98	907.00
958.23	921.00
958.47	937.00
958.71	920.00
958.96	922.00
959.20	955.00
959.44	922.00
959.69	898.00
959.93	933.00
960.17	941.00
960.42	949.00
960.66	914.00
960.90	934.00
961.15	920.00
961.39	918.00
961.64	877.00
961.88	889.00
962.12	933.00
962.37	918.00
962.61	901.00
962.85	900.00
963.10	934.00
963.34	917.00
963.58	889.00
963.83	913.00
964.07	925.00
964.31	944.00
964.56	916.00
964.80	903.00
965.04	914.00
965.29	934.00
965.53	889.00
965.77	898.00
966.02	893.00
966.26	913.00
966.50	881.00
966.74	929.00
966.99	957.00
967.23	947.00
967.47	915.00
967.72	921.00
967.96	937.00
968.20	935.00
968.45	909.00
968.69	903.00
968.93	907.00
969.18	925.00
969.42	928.00
969.66	912.00
969.91	918.00
970.15	950.00
970.39	898.00
970.64	941.00
970.88	939.00
971.12	945.00
971.36	914.00
971.61	894.00
971.85	914.00
972.09	924.00
972.34	894.00
972.58	923.00
972.82	947.00
973.07	956.00
973.31	884.00
973.55	910.00
973.79	931.00
974.04	964.00
974.28	942.00
974.52	922.00
974.77	904.00
975.01	927.00
975.25	897.00
975.50	915.00
975.74	938.00
975.98	947.00
976.22	918.00
976.47	889.00
976.71	910.00
976.95	926.00
977.20	916.00
977.44	916.00
977.68	930.00
977.92	941.00
978.17	910.00
978.41	922.00
978.65	944.00
978.90	928.00
979.14	930.00
979.38	929.00
979.62	925.00
979.87	917.00
980.11	886.00
980.35	920.00
980.59	931.00
980.84	942.00
981.08	907.00
981.32	907.00
981.57	941.00
981.81	940.00
982.05	928.00
982.29	906.00
982.54	928.00
982.78	934.00
983.02	890.00
983.26	909.00
983.51	949.00
983.75	955.00
983.99	906.00
984.23	947.00
984.48	937.00
984.72	967.00
984.96	906.00
985.20	906.00
985.45	961.00
985.69	941.00
985.93	911.00
986.17	930.00
986.42	937.00
986.66	931.00
986.90	884.00
987.14	902.00
987.39	925.00
987.63	903.00
987.87	880.00
988.11	890.00
988.36	922.00
988.60	930.00
988.84	920.00
989.08	899.00
989.33	937.00
989.57	929.00
989.81	882.00
990.05	893.00
990.30	919.00
990.54	904.00
990.78	893.00
991.02	904.00
991.27	931.00
991.51	932.00
991.75	904.00
991.99	925.00
992.23	925.00
992.48	906.00
992.72	888.00
992.96	899.00
993.20	908.00
993.45	934.00
993.69	942.00
993.93	888.00
994.17	925.00
994.41	932.00
994.66	897.00
994.90	903.00
995.14	960.00
995.38	938.00
995.63	898.00
995.87	900.00
996.11	954.00
996.35	939.00
996.59	901.00
996.84	897.00
997.08	929.00
997.32	921.00
997.56	904.00
997.80	901.00
998.05	895.00
998.29	908.00
998.53	894.00
998.77	918.00
999.01	929.00
999.26	924.00
999.50	899.00
999.74	892.00
999.98	924.00
1000.22	932.00
1000.47	872.00
1000.71	888.00
1000.95	928.00
1001.19	932.00
1001.43	902.00
1001.68	922.00
1001.92	899.00
1002.16	901.00
1002.40	876.00
1002.64	885.00
1002.89	909.00
1003.13	933.00
1003.37	915.00
1003.61	891.00
1003.85	912.00
1004.10	920.00
1004.34	909.00
1004.58	913.00
1004.82	945.00
1005.06	930.00
1005.30	903.00
1005.55	899.00
1005.79	919.00
1006.03	917.00
1006.27	909.00
1006.51	895.00
1006.76	911.00
1007.00	944.00
1007.24	907.00
1007.48	920.00
1007.72	940.00
1007.96	936.00
1008.21	906.00
1008.45	923.00
1008.69	922.00
1008.93	942.00
1009.17	907.00
1009.41	923.00
1009.66	958.00
1009.90	927.00
1010.14	899.00
1010.38	920.00
1010.62	940.00
1010.86	952.00
1011.10	913.00
1011.35	893.00
1011.59	921.00
1011.83	893.00
1012.07	870.00
1012.31	905.00
1012.55	920.00
1012.80	944.00
1013.04	914.00
1013.28	922.00
1013.52	940.00
1013.76	953.00
1014.00	889.00
1014.24	897.00
1014.49	941.00
1014.73	962.00
1014.97	933.00
1015.21	917.00
1015.45	952.00
1015.69	931.00
1015.93	922.00
1016.18	934.00
1016.42	953.00
1016.66	935.00
1016.90	884.00
1017.14	884.00
1017.38	896.00
1017.62	914.00
1017.87	917.00
1018.11	903.00
1018.35	934.00
1018.59	934.00
1018.83	872.00
1019.07	919.00
1019.31	925.00
1019.55	935.00
1019.80	916.00
1020.04	916.00
1020.28	905.00
1020.52	933.00
1020.76	900.00
1021.00	887.00
1021.24	917.00
1021.48	898.00
1021.73	913.00
1021.97	921.00
1022.21	925.00
1022.45	935.00
1022.69	913.00
1022.93	908.00
1023.17	925.00
1023.41	952.00
1023.65	910.00
1023.90	949.00
1024.14	946.00
1024.38	918.00
1024.62	880.00
1024.86	920.00
1025.10	925.00
1025.34	899.00
1025.58	877.00
1025.82	896.00
1026.07	951.00
1026.31	941.00
1026.55	907.00
1026.79	906.00
1027.03	928.00
1027.27	921.00
1027.51	887.00
1027.75	862.00
1027.99	883.00
1028.23	952.00
1028.47	941.00
1028.72	901.00
1028.96	921.00
1029.20	948.00
1029.44	925.00
1029.68	920.00
1029.92	931.00
1030.16	945.00
1030.40	872.00
1030.64	902.00
1030.88	907.00
1031.12	904.00
1031.37	869.00
1031.61	903.00
1031.85	942.00
1032.09	942.00
1032.33	892.00
1032.57	948.00
1032.81	918.00
1033.05	947.00
1033.29	909.00
1033.53	916.00
1033.77	981.00
1034.01	960.00
1034.25	924.00
1034.50	914.00
1034.74	919.00
1034.98	937.00
1035.22	893.00
1035.46	909.00
1035.70	961.00
1035.94	970.00
1036.18	916.00
1036.42	920.00
1036.66	912.00
1036.90	938.00
1037.14	885.00
1037.38	884.00
1037.62	912.00
1037.86	921.00
1038.10	913.00
1038.35	910.00
1038.59	929.00
1038.83	938.00
1039.07	929.00
1039.31	948.00
1039.55	896.00
1039.79	921.00
1040.03	874.00
1040.27	869.00
1040.51	944.00
1040.75	954.00
1040.99	909.00
1041.23	925.00
1041.47	919.00
1041.71	939.00
1041.95	897.00
1042.19	922.00
1042.43	942.00
1042.67	945.00
1042.91	900.00
1043.15	901.00
1043.39	949.00
1043.64	928.00
1043.88	890.00
1044.12	917.00
1044.36	967.00
1044.60	960.00
1044.84	925.00
1045.08	925.00
1045.32	931.00
1045.56	934.00
1045.80	914.00
1046.04	927.00
1046.28	954.00
1046.52	949.00
1046.76	878.00
1047.00	887.00
1047.24	946.00
1047.48	920.00
1047.72	915.00
1047.96	905.00
1048.20	939.00
1048.44	945.00
1048.68	888.00
1048.92	907.00
1049.16	926.00
1049.40	946.00
1049.64	912.00
1049.88	918.00
1050.12	956.00
1050.36	969.00
1050.60	907.00
1050.84	905.00
1051.08	917.00
1051.32	920.00
1051.56	922.00
1051.80	914.00
1052.04	944.00
1052.28	959.00
1052.52	905.00
1052.76	906.00
1053.00	920.00
1053.24	923.00
1053.48	883.00
1053.72	894.00
1053.96	929.00
1054.20	938.00
1054.44	923.00
1054.68	954.00
1054.92	961.00
1055.16	892.00
1055.40	898.00
1055.64	923.00
1055.88	947.00
1056.12	966.00
1056.36	888.00
1056.60	908.00
1056.84	940.00
1057.08	921.00
1057.32	904.00
1057.56	877.00
1057.80	912.00
1058.04	948.00
1058.28	906.00
1058.52	918.00
1058.76	941.00
1059.00	961.00
1059.24	888.00
1059.48	884.00
1059.72	937.00
1059.96	926.00
1060.20	942.00
1060.44	944.00
1060.68	966.00
1060.92	919.00
1061.16	866.00
1061.40	902.00
1061.64	915.00
1061.88	925.00
1062.11	877.00
1062.35	886.00
1062.59	905.00
1062.83	936.00
1063.07	891.00
1063.31	887.00
1063.55	913.00
1063.79	948.00
1064.03	893.00
1064.27	905.00
1064.51	926.00
1064.75	939.00
1064.99	899.00
1065.23	892.00
1065.47	905.00
1065.71	942.00
1065.95	901.00
1066.19	900.00
1066.43	933.00
1066.67	935.00
1066.91	926.00
1067.15	917.00
1067.38	906.00
1067.62	914.00
1067.86	903.00
1068.10	937.00
1068.34	994.00
1068.58	980.00
1068.82	933.00
1069.06	884.00
1069.30	919.00
1069.54	969.00
1069.78	945.00
1070.02	894.00
1070.26	930.00
1070.50	958.00
1070.74	923.00
1070.98	931.00
1071.21	931.00
1071.45	928.00
1071.69	893.00
1071.93	916.00
1072.17	933.00
1072.41	963.00
1072.65	925.00
1072.89	934.00
1073.13	935.00
1073.37	923.00
1073.61	897.00
1073.85	921.00
1074.09	905.00
1074.32	900.00
1074.56	885.00
1074.80	977.00
1075.04	1216.00
1075.28	1036.00
1075.52	919.00
1075.76	929.00
1076.00	943.00
1076.24	948.00
1076.48	934.00
1076.72	938.00
1076.96	967.00
1077.19	940.00
1077.43	905.00
1077.67	922.00
1077.91	929.00
1078.15	915.00
1078.39	907.00
1078.63	907.00
1078.87	932.00
1079.11	926.00
1079.35	884.00
1079.58	890.00
1079.82	918.00
1080.06	942.00
1080.30	906.00
1080.54	924.00
1080.78	950.00
1081.02	919.00
1081.26	921.00
1081.50	933.00
1081.74	936.00
1081.97	941.00
1082.21	910.00
1082.45	914.00
1082.69	917.00
1082.93	917.00
1083.17	922.00
1083.41	910.00
1083.65	958.00
1083.88	965.00
1084.12	929.00
1084.36	934.00
1084.60	926.00
1084.84	941.00
1085.08	878.00
1085.32	914.00
1085.56	961.00
1085.80	947.00
1086.03	911.00
1086.27	878.00
1086.51	923.00
1086.75	944.00
1086.99	902.00
1087.23	884.00
1087.47	915.00
1087.70	905.00
1087.94	906.00
1088.18	949.00
1088.42	977.00
1088.66	928.00
1088.90	877.00
1089.14	918.00
1089.38	940.00
1089.61	953.00
1089.85	917.00
1090.09	914.00
1090.33	957.00
1090.57	971.00
1090.81	874.00
1091.05	902.00
1091.28	939.00
1091.52	954.00
1091.76	913.00
1092.00	922.00
1092.24	943.00
1092.48	967.00
1092.71	891.00
1092.95	918.00
1093.19	914.00
1093.43	913.00
1093.67	893.00
1093.91	926.00
1094.15	938.00
1094.38	952.00
1094.62	906.00
1094.86	902.00
1095.10	905.00
1095.34	940.00
1095.58	905.00
1095.81	904.00
1096.05	948.00
1096.29	941.00
1096.53	889.00
1096.77	914.00
1097.01	924.00
1097.24	951.00
1097.48	901.00
1097.72	932.00
1097.96	926.00
1098.20	945.00
1098.44	894.00
1098.67	893.00
1098.91	945.00
1099.15	940.00
1099.39	888.00
1099.63	912.00
1099.86	924.00
1100.10	906.00
1100.34	920.00
1100.58	912.00
1100.82	917.00
1101.06	936.00
1101.29	903.00
1101.53	909.00
1101.77	927.00
1102.01	916.00
1102.25	909.00
1102.48	927.00
1102.72	956.00
1102.96	935.00
1103.20	899.00
1103.44	916.00
1103.67	935.00
1103.91	957.00
1104.15	906.00
1104.39	913.00
1104.63	928.00
1104.86	903.00
1105.10	894.00
1105.34	924.00
1105.58	911.00
1105.82	915.00
1106.05	908.00
1106.29	915.00
1106.53	941.00
1106.77	940.00
1107.01	893.00
1107.24	941.00
1107.48	977.00
1107.72	964.00
1107.96	891.00
1108.20	909.00
1108.43	921.00
1108.67	921.00
1108.91	901.00
1109.15	908.00
1109.39	923.00
1109.62	930.00
1109.86	877.00
1110.10	896.00
1110.34	971.00
1110.57	992.00
1110.81	922.00
1111.05	907.00
1111.29	960.00
1111.53	965.00
1111.76	897.00
1112.00	951.00
1112.24	967.00
1112.48	933.00
1112.71	899.00
1112.95	905.00
1113.19	952.00
1113.43	926.00
1113.66	887.00
1113.90	921.00
1114.14	942.00
1114.38	936.00
1114.62	882.00
1114.85	919.00
1115.09	926.00
1115.33	999.00
1115.57	927.00
1115.80	890.00
1116.04	919.00
1116.28	933.00
1116.52	906.00
1116.75	912.00
1116.99	943.00
1117.23	980.00
1117.47	929.00
1117.70	925.00
1117.94	984.00
1118.18	915.00
1118.42	908.00
1118.65	927.00
1118.89	942.00
1119.13	949.00
1119.37	896.00
1119.60	924.00
1119.84	954.00
>>>>>End Processed Spectral Data<<<<<
