SpectraSuite Data File
++++++++++++++++++++++++++++++++++++
Date: Fri Nov 29 15:12:37 CET 2024
User: student
Dark Spectrum Present: No
Reference Spectrum Present: No
Number of Sampled Component Spectra: 1
Spectrometers: HR4C155
Integration Time (usec): 100000 (HR4C155)
Spectra Averaged: 1 (HR4C155)
Boxcar Smoothing: 0 (HR4C155)
Correct for Electrical Dark: No (HR4C155)
Strobe/Lamp Enabled: No (HR4C155)
Correct for Detector Non-linearity: No (HR4C155)
Correct for Stray Light: No (HR4C155)
Number of Pixels in Processed Spectrum: 3648
>>>>>Begin Processed Spectral Data<<<<<
195.39	747.00
195.66	747.00
195.93	747.00
196.20	700.00
196.46	750.00
196.73	870.00
197.00	887.00
197.27	883.00
197.54	911.00
197.81	895.00
198.08	910.00
198.35	924.00
198.61	928.00
198.88	905.00
199.15	890.00
199.42	924.00
199.69	938.00
199.96	919.00
200.23	930.00
200.49	927.00
200.76	946.00
201.03	943.00
201.30	924.00
201.57	966.00
201.84	983.00
202.11	932.00
202.38	948.00
202.64	957.00
202.91	966.00
203.18	895.00
203.45	971.00
203.72	1066.00
203.99	986.00
204.25	977.00
204.52	973.00
204.79	983.00
205.06	1000.00
205.33	931.00
205.60	949.00
205.87	978.00
206.13	977.00
206.40	942.00
206.67	924.00
206.94	961.00
207.21	967.00
207.48	946.00
207.75	952.00
208.01	978.00
208.28	985.00
208.55	939.00
208.82	950.00
209.09	952.00
209.36	975.00
209.62	945.00
209.89	963.00
210.16	996.00
210.43	1016.00
210.70	939.00
210.97	969.00
211.23	986.00
211.50	991.00
211.77	942.00
212.04	958.00
212.31	965.00
212.58	980.00
212.84	960.00
213.11	965.00
213.38	933.00
213.65	947.00
213.92	932.00
214.18	947.00
214.45	991.00
214.72	1006.00
214.99	946.00
215.26	951.00
215.53	948.00
215.79	985.00
216.06	964.00
216.33	975.00
216.60	945.00
216.87	989.00
217.13	926.00
217.40	948.00
217.67	977.00
217.94	982.00
218.21	939.00
218.48	970.00
218.74	1032.00
219.01	986.00
219.28	908.00
219.55	921.00
219.82	965.00
220.08	989.00
220.35	943.00
220.62	955.00
220.89	997.00
221.16	1029.00
221.42	979.00
221.69	950.00
221.96	968.00
222.23	1008.00
222.50	983.00
222.76	986.00
223.03	968.00
223.30	933.00
223.57	924.00
223.84	924.00
224.10	941.00
224.37	969.00
224.64	942.00
224.91	963.00
225.18	987.00
225.44	979.00
225.71	949.00
225.98	958.00
226.25	990.00
226.51	998.00
226.78	937.00
227.05	952.00
227.32	953.00
227.59	973.00
227.85	963.00
228.12	944.00
228.39	985.00
228.66	986.00
228.92	996.00
229.19	973.00
229.46	995.00
229.73	953.00
230.00	927.00
230.26	964.00
230.53	981.00
230.80	983.00
231.07	917.00
231.33	933.00
231.60	942.00
231.87	969.00
232.14	957.00
232.41	997.00
232.67	972.00
232.94	977.00
233.21	939.00
233.48	965.00
233.74	972.00
234.01	962.00
234.28	920.00
234.55	950.00
234.81	960.00
235.08	1000.00
235.35	951.00
235.62	949.00
235.88	963.00
236.15	988.00
236.42	971.00
236.69	971.00
236.95	977.00
237.22	966.00
237.49	954.00
237.76	956.00
238.02	994.00
238.29	984.00
238.56	942.00
238.83	956.00
239.09	959.00
239.36	989.00
239.63	948.00
239.90	966.00
240.16	1006.00
240.43	1029.00
240.70	938.00
240.97	930.00
241.23	948.00
241.50	976.00
241.77	941.00
242.04	945.00
242.30	922.00
242.57	967.00
242.84	933.00
243.11	940.00
243.37	923.00
243.64	997.00
243.91	950.00
244.18	955.00
244.44	933.00
244.71	936.00
244.98	946.00
245.24	938.00
245.51	970.00
245.78	996.00
246.05	932.00
246.31	941.00
246.58	980.00
246.85	962.00
247.12	938.00
247.38	970.00
247.65	988.00
247.92	985.00
248.18	944.00
248.45	942.00
248.72	962.00
248.99	985.00
249.25	911.00
249.52	916.00
249.79	979.00
250.05	982.00
250.32	931.00
250.59	941.00
250.86	960.00
251.12	967.00
251.39	933.00
251.66	944.00
251.92	992.00
252.19	987.00
252.46	941.00
252.73	975.00
252.99	989.00
253.26	996.00
253.53	947.00
253.79	962.00
254.06	980.00
254.33	950.00
254.60	925.00
254.86	939.00
255.13	984.00
255.40	1022.00
255.66	964.00
255.93	945.00
256.20	979.00
256.46	992.00
256.73	948.00
257.00	957.00
257.26	970.00
257.53	994.00
257.80	968.00
258.07	957.00
258.33	1017.00
258.60	988.00
258.87	917.00
259.13	966.00
259.40	950.00
259.67	1002.00
259.93	967.00
260.20	983.00
260.47	988.00
260.73	965.00
261.00	944.00
261.27	938.00
261.53	971.00
261.80	959.00
262.07	901.00
262.34	933.00
262.60	936.00
262.87	956.00
263.14	933.00
263.40	980.00
263.67	965.00
263.94	966.00
264.20	938.00
264.47	920.00
264.74	917.00
265.00	948.00
265.27	932.00
265.54	945.00
265.80	973.00
266.07	978.00
266.34	927.00
266.60	947.00
266.87	963.00
267.14	967.00
267.40	932.00
267.67	917.00
267.94	978.00
268.20	970.00
268.47	918.00
268.74	903.00
269.00	955.00
269.27	950.00
269.54	892.00
269.80	929.00
270.07	984.00
270.33	962.00
270.60	937.00
270.87	952.00
271.13	949.00
271.40	972.00
271.67	885.00
271.93	898.00
272.20	951.00
272.47	936.00
272.73	893.00
273.00	940.00
273.27	945.00
273.53	991.00
273.80	948.00
274.07	928.00
274.33	934.00
274.60	965.00
274.86	948.00
275.13	953.00
275.40	944.00
275.66	995.00
275.93	943.00
276.20	933.00
276.46	952.00
276.73	932.00
277.00	940.00
277.26	969.00
277.53	982.00
277.79	969.00
278.06	923.00
278.33	976.00
278.59	978.00
278.86	951.00
279.13	920.00
279.39	953.00
279.66	981.00
279.93	977.00
280.19	930.00
280.46	949.00
280.72	968.00
280.99	974.00
281.26	940.00
281.52	932.00
281.79	962.00
282.05	972.00
282.32	945.00
282.59	953.00
282.85	989.00
283.12	978.00
283.39	945.00
283.65	945.00
283.92	968.00
284.18	985.00
284.45	929.00
284.72	943.00
284.98	964.00
285.25	954.00
285.51	952.00
285.78	947.00
286.05	950.00
286.31	954.00
286.58	916.00
286.84	930.00
287.11	954.00
287.38	982.00
287.64	971.00
287.91	933.00
288.17	968.00
288.44	957.00
288.71	918.00
288.97	950.00
289.24	978.00
289.50	965.00
289.77	955.00
290.04	923.00
290.30	931.00
290.57	968.00
290.83	922.00
291.10	929.00
291.37	962.00
291.63	956.00
291.90	962.00
292.16	950.00
292.43	973.00
292.70	963.00
292.96	914.00
293.23	910.00
293.49	935.00
293.76	957.00
294.02	932.00
294.29	922.00
294.56	952.00
294.82	975.00
295.09	944.00
295.35	930.00
295.62	993.00
295.89	998.00
296.15	920.00
296.42	917.00
296.68	938.00
296.95	961.00
297.21	969.00
297.48	945.00
297.75	950.00
298.01	985.00
298.28	937.00
298.54	963.00
298.81	942.00
299.07	959.00
299.34	894.00
299.61	945.00
299.87	984.00
300.14	967.00
300.40	971.00
300.67	941.00
300.93	984.00
301.20	1005.00
301.46	910.00
301.73	934.00
302.00	950.00
302.26	926.00
302.53	951.00
302.79	944.00
303.06	964.00
303.32	985.00
303.59	917.00
303.85	924.00
304.12	950.00
304.39	968.00
304.65	941.00
304.92	941.00
305.18	956.00
305.45	967.00
305.71	921.00
305.98	936.00
306.24	950.00
306.51	962.00
306.77	928.00
307.04	944.00
307.31	976.00
307.57	968.00
307.84	916.00
308.10	932.00
308.37	923.00
308.63	943.00
308.90	916.00
309.16	946.00
309.43	986.00
309.69	963.00
309.96	943.00
310.22	936.00
310.49	944.00
310.76	962.00
311.02	933.00
311.29	943.00
311.55	955.00
311.82	971.00
312.08	948.00
312.35	952.00
312.61	973.00
312.88	967.00
313.14	933.00
313.41	922.00
313.67	927.00
313.94	966.00
314.20	946.00
314.47	944.00
314.73	938.00
315.00	935.00
315.26	915.00
315.53	961.00
315.79	958.00
316.06	963.00
316.32	935.00
316.59	963.00
316.85	964.00
317.12	968.00
317.39	921.00
317.65	924.00
317.92	932.00
318.18	955.00
318.45	941.00
318.71	987.00
318.98	980.00
319.24	959.00
319.51	939.00
319.77	940.00
320.04	947.00
320.30	958.00
320.57	925.00
320.83	920.00
321.10	933.00
321.36	967.00
321.63	920.00
321.89	942.00
322.16	986.00
322.42	958.00
322.69	924.00
322.95	943.00
323.22	956.00
323.48	977.00
323.75	922.00
324.01	959.00
324.28	968.00
324.54	966.00
324.80	928.00
325.07	956.00
325.33	959.00
325.60	956.00
325.86	916.00
326.13	940.00
326.39	956.00
326.66	944.00
326.92	895.00
327.19	935.00
327.45	992.00
327.72	991.00
327.98	927.00
328.25	914.00
328.51	962.00
328.78	965.00
329.04	937.00
329.31	954.00
329.57	956.00
329.84	948.00
330.10	924.00
330.37	947.00
330.63	1001.00
330.89	991.00
331.16	923.00
331.42	923.00
331.69	967.00
331.95	953.00
332.22	950.00
332.48	974.00
332.75	961.00
333.01	953.00
333.28	933.00
333.54	934.00
333.81	951.00
334.07	977.00
334.34	950.00
334.60	970.00
334.86	986.00
335.13	1012.00
335.39	953.00
335.66	946.00
335.92	973.00
336.19	969.00
336.45	904.00
336.72	932.00
336.98	948.00
337.24	982.00
337.51	902.00
337.77	922.00
338.04	953.00
338.30	956.00
338.57	918.00
338.83	948.00
339.10	960.00
339.36	975.00
339.63	933.00
339.89	910.00
340.15	945.00
340.42	988.00
340.68	954.00
340.95	961.00
341.21	958.00
341.48	963.00
341.74	910.00
342.00	913.00
342.27	943.00
342.53	952.00
342.80	921.00
343.06	927.00
343.33	945.00
343.59	979.00
343.85	942.00
344.12	946.00
344.38	990.00
344.65	957.00
344.91	932.00
345.18	932.00
345.44	921.00
345.70	926.00
345.97	886.00
346.23	936.00
346.50	950.00
346.76	950.00
347.03	936.00
347.29	940.00
347.55	938.00
347.82	937.00
348.08	899.00
348.35	910.00
348.61	1002.00
348.87	976.00
349.14	914.00
349.40	908.00
349.67	948.00
349.93	946.00
350.20	946.00
350.46	948.00
350.72	968.00
350.99	952.00
351.25	941.00
351.52	924.00
351.78	947.00
352.04	969.00
352.31	948.00
352.57	946.00
352.84	955.00
353.10	971.00
353.36	945.00
353.63	915.00
353.89	945.00
354.16	957.00
354.42	943.00
354.68	957.00
354.95	995.00
355.21	983.00
355.48	912.00
355.74	952.00
356.00	994.00
356.27	1003.00
356.53	941.00
356.80	948.00
357.06	983.00
357.32	988.00
357.59	949.00
357.85	947.00
358.11	1003.00
358.38	970.00
358.64	938.00
358.91	934.00
359.17	953.00
359.43	966.00
359.70	949.00
359.96	965.00
360.22	971.00
360.49	948.00
360.75	945.00
361.02	918.00
361.28	945.00
361.54	942.00
361.81	919.00
362.07	932.00
362.33	938.00
362.60	954.00
362.86	913.00
363.13	942.00
363.39	982.00
363.65	994.00
363.92	902.00
364.18	893.00
364.44	965.00
364.71	977.00
364.97	938.00
365.24	937.00
365.50	967.00
365.76	966.00
366.03	940.00
366.29	958.00
366.55	990.00
366.82	942.00
367.08	908.00
367.34	940.00
367.61	962.00
367.87	984.00
368.13	971.00
368.40	957.00
368.66	998.00
368.93	980.00
369.19	914.00
369.45	928.00
369.72	967.00
369.98	948.00
370.24	908.00
370.51	942.00
370.77	961.00
371.03	952.00
371.30	933.00
371.56	959.00
371.82	975.00
372.09	955.00
372.35	954.00
372.61	949.00
372.88	955.00
373.14	956.00
373.40	930.00
373.67	935.00
373.93	961.00
374.19	981.00
374.46	923.00
374.72	932.00
374.98	950.00
375.25	976.00
375.51	955.00
375.77	962.00
376.04	966.00
376.30	974.00
376.56	924.00
376.83	923.00
377.09	966.00
377.35	956.00
377.62	936.00
377.88	935.00
378.14	931.00
378.41	949.00
378.67	934.00
378.93	923.00
379.20	950.00
379.46	941.00
379.72	916.00
379.99	931.00
380.25	919.00
380.51	928.00
380.77	924.00
381.04	945.00
381.30	977.00
381.56	990.00
381.83	946.00
382.09	931.00
382.35	930.00
382.62	972.00
382.88	952.00
383.14	930.00
383.41	936.00
383.67	939.00
383.93	936.00
384.20	931.00
384.46	956.00
384.72	993.00
384.98	935.00
385.25	929.00
385.51	965.00
385.77	962.00
386.04	928.00
386.30	922.00
386.56	970.00
386.82	1014.00
387.09	955.00
387.35	980.00
387.61	1016.00
387.88	963.00
388.14	944.00
388.40	954.00
388.67	949.00
388.93	951.00
389.19	934.00
389.45	935.00
389.72	949.00
389.98	980.00
390.24	953.00
390.51	925.00
390.77	966.00
391.03	974.00
391.29	912.00
391.56	932.00
391.82	957.00
392.08	991.00
392.35	946.00
392.61	944.00
392.87	969.00
393.13	990.00
393.40	926.00
393.66	932.00
393.92	957.00
394.18	969.00
394.45	912.00
394.71	917.00
394.97	947.00
395.24	936.00
395.50	916.00
395.76	945.00
396.02	969.00
396.29	968.00
396.55	900.00
396.81	888.00
397.07	946.00
397.34	940.00
397.60	908.00
397.86	930.00
398.12	932.00
398.39	975.00
398.65	938.00
398.91	940.00
399.17	954.00
399.44	926.00
399.70	902.00
399.96	923.00
400.22	932.00
400.49	973.00
400.75	927.00
401.01	918.00
401.27	948.00
401.54	971.00
401.80	926.00
402.06	909.00
402.32	960.00
402.59	949.00
402.85	913.00
403.11	937.00
403.37	930.00
403.64	962.00
403.90	923.00
404.16	932.00
404.42	945.00
404.69	934.00
404.95	926.00
405.21	892.00
405.47	939.00
405.74	978.00
406.00	925.00
406.26	923.00
406.52	941.00
406.79	956.00
407.05	912.00
407.31	928.00
407.57	924.00
407.83	944.00
408.10	913.00
408.36	923.00
408.62	961.00
408.88	958.00
409.15	911.00
409.41	885.00
409.67	908.00
409.93	974.00
410.20	953.00
410.46	921.00
410.72	936.00
410.98	944.00
411.24	925.00
411.51	943.00
411.77	930.00
412.03	951.00
412.29	945.00
412.55	951.00
412.82	947.00
413.08	970.00
413.34	949.00
413.60	935.00
413.87	940.00
414.13	960.00
414.39	900.00
414.65	927.00
414.91	954.00
415.18	938.00
415.44	909.00
415.70	912.00
415.96	932.00
416.22	948.00
416.49	917.00
416.75	926.00
417.01	939.00
417.27	953.00
417.53	926.00
417.80	944.00
418.06	964.00
418.32	961.00
418.58	909.00
418.84	928.00
419.11	946.00
419.37	944.00
419.63	924.00
419.89	925.00
420.15	942.00
420.42	945.00
420.68	921.00
420.94	930.00
421.20	929.00
421.46	948.00
421.72	966.00
421.99	964.00
422.25	959.00
422.51	957.00
422.77	937.00
423.03	946.00
423.30	946.00
423.56	964.00
423.82	948.00
424.08	947.00
424.34	952.00
424.60	961.00
424.87	924.00
425.13	914.00
425.39	943.00
425.65	952.00
425.91	928.00
426.18	944.00
426.44	957.00
426.70	916.00
426.96	894.00
427.22	902.00
427.48	927.00
427.75	922.00
428.01	898.00
428.27	945.00
428.53	965.00
428.79	927.00
429.05	912.00
429.32	931.00
429.58	980.00
429.84	936.00
430.10	938.00
430.36	927.00
430.62	972.00
430.88	967.00
431.15	938.00
431.41	942.00
431.67	963.00
431.93	940.00
432.19	899.00
432.45	923.00
432.72	948.00
432.98	934.00
433.24	953.00
433.50	1032.00
433.76	927.00
434.02	920.00
434.28	905.00
434.55	924.00
434.81	947.00
435.07	945.00
435.33	906.00
435.59	911.00
435.85	948.00
436.11	962.00
436.38	913.00
436.64	924.00
436.90	945.00
437.16	953.00
437.42	923.00
437.68	920.00
437.94	948.00
438.21	956.00
438.47	962.00
438.73	949.00
438.99	949.00
439.25	954.00
439.51	912.00
439.77	924.00
440.03	937.00
440.30	949.00
440.56	929.00
440.82	964.00
441.08	966.00
441.34	954.00
441.60	919.00
441.86	934.00
442.12	945.00
442.39	953.00
442.65	916.00
442.91	941.00
443.17	946.00
443.43	949.00
443.69	933.00
443.95	912.00
444.21	933.00
444.47	951.00
444.74	898.00
445.00	917.00
445.26	926.00
445.52	952.00
445.78	930.00
446.04	919.00
446.30	953.00
446.56	951.00
446.82	906.00
447.09	928.00
447.35	957.00
447.61	948.00
447.87	932.00
448.13	930.00
448.39	986.00
448.65	976.00
448.91	932.00
449.17	936.00
449.43	924.00
449.70	942.00
449.96	911.00
450.22	907.00
450.48	942.00
450.74	990.00
451.00	930.00
451.26	934.00
451.52	952.00
451.78	934.00
452.04	910.00
452.31	957.00
452.57	962.00
452.83	946.00
453.09	919.00
453.35	930.00
453.61	953.00
453.87	942.00
454.13	959.00
454.39	946.00
454.65	997.00
454.91	981.00
455.17	902.00
455.44	917.00
455.70	952.00
455.96	945.00
456.22	911.00
456.48	925.00
456.74	950.00
457.00	915.00
457.26	878.00
457.52	908.00
457.78	926.00
458.04	941.00
458.30	903.00
458.56	925.00
458.82	929.00
459.09	920.00
459.35	881.00
459.61	909.00
459.87	943.00
460.13	973.00
460.39	920.00
460.65	921.00
460.91	981.00
461.17	930.00
461.43	891.00
461.69	909.00
461.95	944.00
462.21	938.00
462.47	937.00
462.73	956.00
462.99	978.00
463.26	968.00
463.52	899.00
463.78	880.00
464.04	921.00
464.30	942.00
464.56	907.00
464.82	927.00
465.08	979.00
465.34	977.00
465.60	949.00
465.86	940.00
466.12	943.00
466.38	925.00
466.64	900.00
466.90	907.00
467.16	929.00
467.42	955.00
467.68	916.00
467.94	925.00
468.20	978.00
468.46	946.00
468.72	917.00
468.98	936.00
469.25	959.00
469.51	936.00
469.77	946.00
470.03	929.00
470.29	943.00
470.55	961.00
470.81	927.00
471.07	928.00
471.33	953.00
471.59	964.00
471.85	933.00
472.11	946.00
472.37	963.00
472.63	952.00
472.89	932.00
473.15	907.00
473.41	936.00
473.67	933.00
473.93	902.00
474.19	901.00
474.45	914.00
474.71	941.00
474.97	908.00
475.23	916.00
475.49	924.00
475.75	920.00
476.01	927.00
476.27	954.00
476.53	971.00
476.79	961.00
477.05	932.00
477.31	923.00
477.57	945.00
477.83	954.00
478.09	899.00
478.35	949.00
478.61	983.00
478.87	956.00
479.13	929.00
479.39	966.00
479.65	961.00
479.91	970.00
480.17	928.00
480.43	951.00
480.69	926.00
480.95	954.00
481.21	927.00
481.47	927.00
481.73	938.00
481.99	920.00
482.25	899.00
482.51	883.00
482.77	961.00
483.03	956.00
483.29	953.00
483.55	941.00
483.81	976.00
484.07	969.00
484.33	913.00
484.59	921.00
484.85	967.00
485.11	955.00
485.37	915.00
485.63	909.00
485.89	918.00
486.15	902.00
486.41	903.00
486.67	916.00
486.93	951.00
487.19	944.00
487.45	909.00
487.71	919.00
487.97	961.00
488.23	966.00
488.49	909.00
488.75	912.00
489.01	945.00
489.27	983.00
489.53	918.00
489.79	901.00
490.05	940.00
490.31	969.00
490.57	945.00
490.83	987.00
491.08	941.00
491.34	923.00
491.60	909.00
491.86	950.00
492.12	1002.00
492.38	986.00
492.64	909.00
492.90	906.00
493.16	965.00
493.42	934.00
493.68	900.00
493.94	937.00
494.20	942.00
494.46	956.00
494.72	921.00
494.98	917.00
495.24	950.00
495.50	958.00
495.76	948.00
496.02	950.00
496.28	952.00
496.54	967.00
496.80	935.00
497.05	891.00
497.31	935.00
497.57	956.00
497.83	927.00
498.09	933.00
498.35	962.00
498.61	939.00
498.87	926.00
499.13	928.00
499.39	955.00
499.65	941.00
499.91	938.00
500.17	914.00
500.43	1000.00
500.69	1020.00
500.95	931.00
501.20	933.00
501.46	952.00
501.72	956.00
501.98	954.00
502.24	962.00
502.50	978.00
502.76	954.00
503.02	931.00
503.28	951.00
503.54	998.00
503.80	1005.00
504.06	957.00
504.32	973.00
504.58	964.00
504.83	947.00
505.09	920.00
505.35	940.00
505.61	903.00
505.87	936.00
506.13	933.00
506.39	923.00
506.65	962.00
506.91	985.00
507.17	935.00
507.43	926.00
507.68	958.00
507.94	976.00
508.20	932.00
508.46	909.00
508.72	969.00
508.98	983.00
509.24	909.00
509.50	945.00
509.76	952.00
510.02	954.00
510.28	908.00
510.53	924.00
510.79	979.00
511.05	957.00
511.31	909.00
511.57	929.00
511.83	949.00
512.09	970.00
512.35	916.00
512.61	914.00
512.87	930.00
513.12	950.00
513.38	903.00
513.64	922.00
513.90	946.00
514.16	978.00
514.42	936.00
514.68	936.00
514.94	976.00
515.20	953.00
515.45	910.00
515.71	912.00
515.97	942.00
516.23	945.00
516.49	905.00
516.75	934.00
517.01	941.00
517.27	935.00
517.53	910.00
517.78	937.00
518.04	948.00
518.30	916.00
518.56	903.00
518.82	955.00
519.08	983.00
519.34	925.00
519.60	907.00
519.85	929.00
520.11	936.00
520.37	933.00
520.63	939.00
520.89	947.00
521.15	963.00
521.41	945.00
521.66	921.00
521.92	921.00
522.18	964.00
522.44	967.00
522.70	913.00
522.96	891.00
523.22	950.00
523.48	949.00
523.73	934.00
523.99	921.00
524.25	984.00
524.51	979.00
524.77	913.00
525.03	917.00
525.29	953.00
525.54	958.00
525.80	915.00
526.06	916.00
526.32	918.00
526.58	923.00
526.84	908.00
527.09	909.00
527.35	907.00
527.61	924.00
527.87	913.00
528.13	953.00
528.39	936.00
528.65	925.00
528.90	886.00
529.16	917.00
529.42	935.00
529.68	949.00
529.94	915.00
530.20	916.00
530.45	914.00
530.71	933.00
530.97	914.00
531.23	926.00
531.49	947.00
531.75	930.00
532.00	929.00
532.26	925.00
532.52	951.00
532.78	930.00
533.04	903.00
533.30	908.00
533.55	932.00
533.81	938.00
534.07	904.00
534.33	901.00
534.59	936.00
534.85	927.00
535.10	901.00
535.36	897.00
535.62	941.00
535.88	928.00
536.14	894.00
536.39	900.00
536.65	963.00
536.91	966.00
537.17	909.00
537.43	914.00
537.69	964.00
537.94	947.00
538.20	913.00
538.46	930.00
538.72	948.00
538.98	938.00
539.23	888.00
539.49	891.00
539.75	945.00
540.01	951.00
540.27	914.00
540.52	954.00
540.78	953.00
541.04	967.00
541.30	908.00
541.56	906.00
541.81	978.00
542.07	1014.00
542.33	928.00
542.59	918.00
542.85	923.00
543.10	943.00
543.36	903.00
543.62	924.00
543.88	945.00
544.14	930.00
544.39	903.00
544.65	922.00
544.91	964.00
545.17	948.00
545.43	912.00
545.68	921.00
545.94	946.00
546.20	943.00
546.46	920.00
546.71	918.00
546.97	931.00
547.23	956.00
547.49	915.00
547.75	927.00
548.00	949.00
548.26	960.00
548.52	912.00
548.78	904.00
549.03	917.00
549.29	903.00
549.55	893.00
549.81	922.00
550.07	956.00
550.32	965.00
550.58	908.00
550.84	953.00
551.10	957.00
551.35	934.00
551.61	918.00
551.87	939.00
552.13	950.00
552.39	932.00
552.64	897.00
552.90	914.00
553.16	952.00
553.42	945.00
553.67	897.00
553.93	900.00
554.19	957.00
554.45	986.00
554.70	944.00
554.96	904.00
555.22	936.00
555.48	958.00
555.73	909.00
555.99	914.00
556.25	970.00
556.51	948.00
556.76	907.00
557.02	927.00
557.28	952.00
557.54	930.00
557.79	899.00
558.05	943.00
558.31	931.00
558.57	958.00
558.82	905.00
559.08	891.00
559.34	895.00
559.60	938.00
559.85	906.00
560.11	939.00
560.37	933.00
560.63	913.00
560.88	900.00
561.14	919.00
561.40	954.00
561.66	908.00
561.91	901.00
562.17	919.00
562.43	962.00
562.68	964.00
562.94	925.00
563.20	951.00
563.46	959.00
563.71	973.00
563.97	924.00
564.23	944.00
564.49	956.00
564.74	942.00
565.00	906.00
565.26	914.00
565.51	937.00
565.77	921.00
566.03	904.00
566.29	919.00
566.54	909.00
566.80	925.00
567.06	909.00
567.31	934.00
567.57	950.00
567.83	921.00
568.09	922.00
568.34	905.00
568.60	932.00
568.86	973.00
569.11	948.00
569.37	912.00
569.63	954.00
569.89	956.00
570.14	890.00
570.40	909.00
570.66	939.00
570.91	929.00
571.17	911.00
571.43	955.00
571.69	976.00
571.94	964.00
572.20	890.00
572.46	918.00
572.71	968.00
572.97	948.00
573.23	904.00
573.48	929.00
573.74	942.00
574.00	951.00
574.26	918.00
574.51	932.00
574.77	968.00
575.03	945.00
575.28	914.00
575.54	892.00
575.80	929.00
576.05	936.00
576.31	893.00
576.57	899.00
576.82	939.00
577.08	953.00
577.34	918.00
577.59	928.00
577.85	953.00
578.11	936.00
578.37	902.00
578.62	902.00
578.88	953.00
579.14	954.00
579.39	920.00
579.65	934.00
579.91	938.00
580.16	944.00
580.42	936.00
580.68	925.00
580.93	965.00
581.19	930.00
581.45	900.00
581.70	931.00
581.96	961.00
582.22	969.00
582.47	936.00
582.73	939.00
582.99	956.00
583.24	950.00
583.50	898.00
583.76	905.00
584.01	919.00
584.27	971.00
584.53	930.00
584.78	931.00
585.04	944.00
585.30	948.00
585.55	945.00
585.81	925.00
586.07	965.00
586.32	965.00
586.58	926.00
586.83	921.00
587.09	941.00
587.35	960.00
587.60	913.00
587.86	923.00
588.12	937.00
588.37	964.00
588.63	925.00
588.89	947.00
589.14	965.00
589.40	968.00
589.66	925.00
589.91	934.00
590.17	946.00
590.43	917.00
590.68	908.00
590.94	933.00
591.19	967.00
591.45	953.00
591.71	914.00
591.96	927.00
592.22	964.00
592.48	963.00
592.73	914.00
592.99	941.00
593.25	954.00
593.50	951.00
593.76	911.00
594.01	934.00
594.27	970.00
594.53	965.00
594.78	917.00
595.04	926.00
595.30	956.00
595.55	959.00
595.81	913.00
596.06	972.00
596.32	990.00
596.58	963.00
596.83	930.00
597.09	965.00
597.35	974.00
597.60	948.00
597.86	914.00
598.11	947.00
598.37	984.00
598.63	952.00
598.88	927.00
599.14	926.00
599.39	976.00
599.65	957.00
599.91	917.00
600.16	933.00
600.42	954.00
600.67	970.00
600.93	923.00
601.19	960.00
601.44	1008.00
601.70	991.00
601.95	939.00
602.21	971.00
602.47	961.00
602.72	989.00
602.98	973.00
603.23	980.00
603.49	996.00
603.75	1018.00
604.00	960.00
604.26	971.00
604.51	966.00
604.77	1007.00
605.03	947.00
605.28	950.00
605.54	1000.00
605.79	1040.00
606.05	948.00
606.31	959.00
606.56	1001.00
606.82	997.00
607.07	985.00
607.33	1008.00
607.59	1028.00
607.84	1018.00
608.10	974.00
608.35	1000.00
608.61	1027.00
608.86	1021.00
609.12	1000.00
609.38	1041.00
609.63	1062.00
609.89	1034.00
610.14	967.00
610.40	1008.00
610.65	1049.00
610.91	1056.00
611.17	1057.00
611.42	1070.00
611.68	1092.00
611.93	1090.00
612.19	1058.00
612.44	1054.00
612.70	1077.00
612.96	1056.00
613.21	1047.00
613.47	1077.00
613.72	1091.00
613.98	1122.00
614.23	1087.00
614.49	1120.00
614.75	1174.00
615.00	1139.00
615.26	1128.00
615.51	1125.00
615.77	1140.00
616.02	1165.00
616.28	1163.00
616.53	1170.00
616.79	1158.00
617.05	1166.00
617.30	1165.00
617.56	1194.00
617.81	1218.00
618.07	1230.00
618.32	1260.00
618.58	1306.00
618.83	1302.00
619.09	1332.00
619.34	1298.00
619.60	1276.00
619.86	1334.00
620.11	1344.00
620.37	1351.00
620.62	1410.00
620.88	1452.00
621.13	1434.00
621.39	1409.00
621.64	1471.00
621.90	1561.00
622.15	1535.00
622.41	1539.00
622.66	1580.00
622.92	1644.00
623.18	1693.00
623.43	1641.00
623.69	1614.00
623.94	1676.00
624.20	1794.00
624.45	1872.00
624.71	1950.00
624.96	1987.00
625.22	2085.00
625.47	2092.00
625.73	2202.00
625.98	2394.00
626.24	2518.00
626.49	2537.00
626.75	2577.00
627.00	2587.00
627.26	2651.00
627.51	2794.00
627.77	2917.00
628.02	3021.00
628.28	3055.00
628.53	2925.00
628.79	3021.00
629.05	3360.00
629.30	3766.00
629.56	3848.00
629.81	3856.00
630.07	3741.00
630.32	3942.00
630.58	4344.00
630.83	4652.00
631.09	4921.00
631.34	4812.00
631.60	4750.00
631.85	4869.00
632.11	5471.00
632.36	6369.00
632.62	6643.00
632.87	6897.00
633.13	7106.00
633.38	6906.00
633.64	7136.00
633.89	6983.00
634.15	6393.00
634.40	6427.00
634.66	6997.00
634.91	7744.00
635.17	7814.00
635.42	8534.00
635.68	8918.00
635.93	8473.00
636.18	8425.00
636.44	8368.00
636.69	8214.00
636.95	8003.00
637.20	7731.00
637.46	7979.00
637.71	8196.00
637.97	7917.00
638.22	7856.00
638.48	7618.00
638.73	7050.00
638.99	6177.00
639.24	5726.00
639.50	5192.00
639.75	5754.00
640.01	6629.00
640.26	6443.00
640.52	5814.00
640.77	5187.00
641.03	4507.00
641.28	3996.00
641.54	3798.00
641.79	3665.00
642.04	3890.00
642.30	3660.00
642.55	3449.00
642.81	3310.00
643.06	3077.00
643.32	2837.00
643.57	2692.00
643.83	2648.00
644.08	2526.00
644.34	2455.00
644.59	2407.00
644.85	2307.00
645.10	2270.00
645.35	2199.00
645.61	2117.00
645.86	1954.00
646.12	1882.00
646.37	1829.00
646.63	1827.00
646.88	1692.00
647.14	1580.00
647.39	1591.00
647.65	1623.00
647.90	1498.00
648.15	1420.00
648.41	1375.00
648.66	1364.00
648.92	1323.00
649.17	1340.00
649.43	1338.00
649.68	1310.00
649.94	1283.00
650.19	1255.00
650.44	1228.00
650.70	1206.00
650.95	1142.00
651.21	1200.00
651.46	1258.00
651.72	1240.00
651.97	1187.00
652.23	1135.00
652.48	1122.00
652.73	1113.00
652.99	1078.00
653.24	1095.00
653.50	1091.00
653.75	1082.00
654.01	1086.00
654.26	1104.00
654.51	1091.00
654.77	1118.00
655.02	1072.00
655.28	1036.00
655.53	1042.00
655.79	1066.00
656.04	1027.00
656.29	1033.00
656.55	1029.00
656.80	1033.00
657.06	981.00
657.31	999.00
657.56	985.00
657.82	981.00
658.07	984.00
658.33	996.00
658.58	1004.00
658.84	1014.00
659.09	980.00
659.34	981.00
659.60	1011.00
659.85	1006.00
660.11	989.00
660.36	982.00
660.61	980.00
660.87	954.00
661.12	932.00
661.38	958.00
661.63	961.00
661.88	969.00
662.14	977.00
662.39	969.00
662.65	997.00
662.90	1011.00
663.15	931.00
663.41	958.00
663.66	1000.00
663.92	1012.00
664.17	951.00
664.42	962.00
664.68	987.00
664.93	957.00
665.19	919.00
665.44	936.00
665.69	926.00
665.95	957.00
666.20	916.00
666.45	971.00
666.71	980.00
666.96	963.00
667.22	896.00
667.47	937.00
667.72	933.00
667.98	957.00
668.23	929.00
668.49	962.00
668.74	971.00
668.99	952.00
669.25	922.00
669.50	911.00
669.75	929.00
670.01	959.00
670.26	900.00
670.52	915.00
670.77	940.00
671.02	945.00
671.28	914.00
671.53	933.00
671.78	956.00
672.04	970.00
672.29	927.00
672.54	918.00
672.80	949.00
673.05	955.00
673.31	916.00
673.56	955.00
673.81	976.00
674.07	948.00
674.32	931.00
674.57	932.00
674.83	944.00
675.08	944.00
675.33	921.00
675.59	932.00
675.84	964.00
676.09	950.00
676.35	923.00
676.60	936.00
676.86	953.00
677.11	981.00
677.36	935.00
677.62	944.00
677.87	979.00
678.12	997.00
678.38	933.00
678.63	933.00
678.88	965.00
679.14	980.00
679.39	907.00
679.64	930.00
679.90	920.00
680.15	947.00
680.40	929.00
680.66	927.00
680.91	941.00
681.16	955.00
681.42	927.00
681.67	935.00
681.92	950.00
682.18	974.00
682.43	919.00
682.68	900.00
682.94	930.00
683.19	912.00
683.44	905.00
683.70	931.00
683.95	940.00
684.20	946.00
684.46	938.00
684.71	960.00
684.96	941.00
685.22	953.00
685.47	927.00
685.72	955.00
685.98	961.00
686.23	908.00
686.48	914.00
686.74	947.00
686.99	992.00
687.24	960.00
687.50	906.00
687.75	901.00
688.00	934.00
688.25	948.00
688.51	934.00
688.76	949.00
689.01	911.00
689.27	919.00
689.52	888.00
689.77	924.00
690.03	913.00
690.28	932.00
690.53	912.00
690.79	918.00
691.04	951.00
691.29	953.00
691.54	892.00
691.80	921.00
692.05	944.00
692.30	931.00
692.56	916.00
692.81	929.00
693.06	921.00
693.32	910.00
693.57	892.00
693.82	939.00
694.07	944.00
694.33	937.00
694.58	902.00
694.83	934.00
695.09	926.00
695.34	955.00
695.59	914.00
695.84	927.00
696.10	952.00
696.35	939.00
696.60	883.00
696.86	893.00
697.11	935.00
697.36	954.00
697.61	920.00
697.87	943.00
698.12	925.00
698.37	925.00
698.63	924.00
698.88	914.00
699.13	948.00
699.38	934.00
699.64	903.00
699.89	927.00
700.14	948.00
700.39	931.00
700.65	911.00
700.90	944.00
701.15	946.00
701.40	949.00
701.66	894.00
701.91	910.00
702.16	920.00
702.42	923.00
702.67	896.00
702.92	901.00
703.17	927.00
703.43	952.00
703.68	927.00
703.93	948.00
704.18	973.00
704.44	954.00
704.69	913.00
704.94	929.00
705.19	919.00
705.45	950.00
705.70	944.00
705.95	923.00
706.20	933.00
706.46	956.00
706.71	918.00
706.96	904.00
707.21	926.00
707.47	929.00
707.72	927.00
707.97	918.00
708.22	956.00
708.48	971.00
708.73	927.00
708.98	901.00
709.23	922.00
709.49	940.00
709.74	922.00
709.99	923.00
710.24	934.00
710.50	944.00
710.75	919.00
711.00	934.00
711.25	939.00
711.50	933.00
711.76	910.00
712.01	910.00
712.26	912.00
712.51	942.00
712.77	905.00
713.02	912.00
713.27	909.00
713.52	920.00
713.78	908.00
714.03	906.00
714.28	914.00
714.53	927.00
714.78	910.00
715.04	934.00
715.29	934.00
715.54	945.00
715.79	903.00
716.05	928.00
716.30	944.00
716.55	936.00
716.80	912.00
717.05	941.00
717.31	948.00
717.56	949.00
717.81	931.00
718.06	920.00
718.31	919.00
718.57	940.00
718.82	916.00
719.07	940.00
719.32	920.00
719.57	938.00
719.83	914.00
720.08	927.00
720.33	920.00
720.58	895.00
720.83	873.00
721.09	945.00
721.34	941.00
721.59	962.00
721.84	912.00
722.09	906.00
722.35	927.00
722.60	921.00
722.85	894.00
723.10	914.00
723.35	914.00
723.61	940.00
723.86	936.00
724.11	937.00
724.36	919.00
724.61	917.00
724.87	909.00
725.12	909.00
725.37	918.00
725.62	922.00
725.87	899.00
726.12	897.00
726.38	914.00
726.63	924.00
726.88	896.00
727.13	926.00
727.38	919.00
727.64	929.00
727.89	893.00
728.14	915.00
728.39	893.00
728.64	932.00
728.89	912.00
729.15	947.00
729.40	964.00
729.65	958.00
729.90	904.00
730.15	931.00
730.40	929.00
730.66	936.00
730.91	892.00
731.16	912.00
731.41	926.00
731.66	932.00
731.91	908.00
732.17	951.00
732.42	953.00
732.67	930.00
732.92	902.00
733.17	938.00
733.42	936.00
733.68	927.00
733.93	912.00
734.18	926.00
734.43	892.00
734.68	919.00
734.93	911.00
735.18	929.00
735.44	941.00
735.69	954.00
735.94	867.00
736.19	913.00
736.44	928.00
736.69	978.00
736.95	914.00
737.20	927.00
737.45	944.00
737.70	944.00
737.95	934.00
738.20	944.00
738.45	945.00
738.70	945.00
738.96	924.00
739.21	956.00
739.46	941.00
739.71	946.00
739.96	916.00
740.21	933.00
740.46	992.00
740.72	971.00
740.97	907.00
741.22	930.00
741.47	901.00
741.72	946.00
741.97	900.00
742.22	914.00
742.47	936.00
742.73	932.00
742.98	890.00
743.23	885.00
743.48	891.00
743.73	936.00
743.98	929.00
744.23	918.00
744.48	940.00
744.74	927.00
744.99	888.00
745.24	931.00
745.49	933.00
745.74	952.00
745.99	892.00
746.24	904.00
746.49	890.00
746.74	909.00
747.00	916.00
747.25	923.00
747.50	902.00
747.75	925.00
748.00	884.00
748.25	899.00
748.50	931.00
748.75	961.00
749.00	958.00
749.26	968.00
749.51	945.00
749.76	939.00
750.01	913.00
750.26	932.00
750.51	955.00
750.76	939.00
751.01	899.00
751.26	905.00
751.51	922.00
751.77	965.00
752.02	920.00
752.27	907.00
752.52	906.00
752.77	919.00
753.02	919.00
753.27	941.00
753.52	922.00
753.77	916.00
754.02	894.00
754.27	920.00
754.52	901.00
754.78	927.00
755.03	913.00
755.28	931.00
755.53	930.00
755.78	938.00
756.03	888.00
756.28	925.00
756.53	934.00
756.78	942.00
757.03	916.00
757.28	943.00
757.53	933.00
757.79	892.00
758.04	890.00
758.29	966.00
758.54	951.00
758.79	946.00
759.04	917.00
759.29	906.00
759.54	925.00
759.79	909.00
760.04	919.00
760.29	927.00
760.54	940.00
760.79	925.00
761.04	875.00
761.29	908.00
761.55	919.00
761.80	931.00
762.05	900.00
762.30	937.00
762.55	944.00
762.80	945.00
763.05	929.00
763.30	936.00
763.55	952.00
763.80	934.00
764.05	899.00
764.30	938.00
764.55	960.00
764.80	945.00
765.05	899.00
765.30	945.00
765.55	939.00
765.80	931.00
766.05	890.00
766.30	903.00
766.56	929.00
766.81	943.00
767.06	926.00
767.31	934.00
767.56	912.00
767.81	912.00
768.06	900.00
768.31	930.00
768.56	931.00
768.81	987.00
769.06	906.00
769.31	917.00
769.56	916.00
769.81	945.00
770.06	904.00
770.31	924.00
770.56	927.00
770.81	909.00
771.06	890.00
771.31	933.00
771.56	925.00
771.81	947.00
772.06	902.00
772.31	922.00
772.56	924.00
772.81	941.00
773.06	881.00
773.31	929.00
773.56	922.00
773.81	902.00
774.06	898.00
774.31	920.00
774.56	926.00
774.81	951.00
775.06	929.00
775.31	937.00
775.56	944.00
775.81	920.00
776.06	893.00
776.31	914.00
776.56	926.00
776.82	947.00
777.07	903.00
777.32	904.00
777.57	933.00
777.82	959.00
778.07	907.00
778.32	920.00
778.57	939.00
778.82	947.00
779.07	909.00
779.32	905.00
779.57	903.00
779.82	919.00
780.07	917.00
780.32	916.00
780.56	909.00
780.81	972.00
781.06	898.00
781.31	914.00
781.56	960.00
781.81	939.00
782.06	901.00
782.31	925.00
782.56	930.00
782.81	973.00
783.06	917.00
783.31	913.00
783.56	912.00
783.81	941.00
784.06	923.00
784.31	914.00
784.56	903.00
784.81	956.00
785.06	920.00
785.31	944.00
785.56	896.00
785.81	901.00
786.06	888.00
786.31	919.00
786.56	928.00
786.81	942.00
787.06	933.00
787.31	929.00
787.56	915.00
787.81	914.00
788.06	892.00
788.31	926.00
788.56	900.00
788.81	950.00
789.06	927.00
789.31	927.00
789.56	930.00
789.81	936.00
790.06	895.00
790.31	928.00
790.56	919.00
790.80	910.00
791.05	901.00
791.30	885.00
791.55	908.00
791.80	923.00
792.05	913.00
792.30	919.00
792.55	922.00
792.80	927.00
793.05	905.00
793.30	915.00
793.55	928.00
793.80	942.00
794.05	885.00
794.30	900.00
794.55	919.00
794.80	939.00
795.05	912.00
795.30	906.00
795.54	893.00
795.79	938.00
796.04	884.00
796.29	918.00
796.54	913.00
796.79	937.00
797.04	917.00
797.29	937.00
797.54	948.00
797.79	952.00
798.04	916.00
798.29	911.00
798.54	903.00
798.79	922.00
799.04	893.00
799.29	912.00
799.53	922.00
799.78	914.00
800.03	901.00
800.28	894.00
800.53	903.00
800.78	961.00
801.03	908.00
801.28	920.00
801.53	919.00
801.78	929.00
802.03	903.00
802.28	907.00
802.52	929.00
802.77	951.00
803.02	937.00
803.27	932.00
803.52	894.00
803.77	932.00
804.02	941.00
804.27	943.00
804.52	944.00
804.77	968.00
805.02	927.00
805.27	954.00
805.51	938.00
805.76	947.00
806.01	909.00
806.26	898.00
806.51	918.00
806.76	962.00
807.01	922.00
807.26	910.00
807.51	942.00
807.76	916.00
808.00	877.00
808.25	906.00
808.50	935.00
808.75	925.00
809.00	894.00
809.25	907.00
809.50	925.00
809.75	945.00
810.00	923.00
810.24	907.00
810.49	885.00
810.74	894.00
810.99	899.00
811.24	922.00
811.49	929.00
811.74	939.00
811.99	877.00
812.24	921.00
812.48	908.00
812.73	896.00
812.98	871.00
813.23	890.00
813.48	919.00
813.73	927.00
813.98	870.00
814.23	890.00
814.47	901.00
814.72	911.00
814.97	882.00
815.22	922.00
815.47	896.00
815.72	931.00
815.97	882.00
816.22	915.00
816.46	910.00
816.71	957.00
816.96	944.00
817.21	954.00
817.46	927.00
817.71	924.00
817.96	900.00
818.20	908.00
818.45	902.00
818.70	937.00
818.95	900.00
819.20	908.00
819.45	895.00
819.70	916.00
819.94	883.00
820.19	907.00
820.44	910.00
820.69	923.00
820.94	897.00
821.19	935.00
821.44	989.00
821.68	1004.00
821.93	925.00
822.18	937.00
822.43	954.00
822.68	951.00
822.93	896.00
823.17	915.00
823.42	931.00
823.67	941.00
823.92	901.00
824.17	920.00
824.42	913.00
824.67	948.00
824.91	904.00
825.16	912.00
825.41	917.00
825.66	921.00
825.91	886.00
826.16	917.00
826.40	928.00
826.65	935.00
826.90	888.00
827.15	907.00
827.40	920.00
827.65	959.00
827.89	873.00
828.14	914.00
828.39	922.00
828.64	939.00
828.89	893.00
829.13	918.00
829.38	908.00
829.63	936.00
829.88	893.00
830.13	902.00
830.38	906.00
830.62	927.00
830.87	904.00
831.12	912.00
831.37	928.00
831.62	953.00
831.86	912.00
832.11	903.00
832.36	892.00
832.61	927.00
832.86	904.00
833.10	926.00
833.35	931.00
833.60	944.00
833.85	902.00
834.10	923.00
834.35	945.00
834.59	954.00
834.84	905.00
835.09	932.00
835.34	901.00
835.59	918.00
835.83	908.00
836.08	935.00
836.33	918.00
836.58	934.00
836.83	893.00
837.07	926.00
837.32	945.00
837.57	918.00
837.82	886.00
838.06	932.00
838.31	941.00
838.56	962.00
838.81	883.00
839.06	910.00
839.30	929.00
839.55	947.00
839.80	902.00
840.05	928.00
840.30	954.00
840.54	961.00
840.79	901.00
841.04	929.00
841.29	925.00
841.53	932.00
841.78	898.00
842.03	896.00
842.28	902.00
842.53	908.00
842.77	910.00
843.02	937.00
843.27	923.00
843.52	941.00
843.76	916.00
844.01	935.00
844.26	916.00
844.51	929.00
844.75	907.00
845.00	908.00
845.25	918.00
845.50	934.00
845.75	899.00
845.99	922.00
846.24	920.00
846.49	931.00
846.74	896.00
846.98	896.00
847.23	915.00
847.48	955.00
847.73	909.00
847.97	936.00
848.22	948.00
848.47	940.00
848.72	902.00
848.96	897.00
849.21	942.00
849.46	919.00
849.71	896.00
849.95	910.00
850.20	890.00
850.45	918.00
850.70	890.00
850.94	919.00
851.19	913.00
851.44	909.00
851.69	889.00
851.93	938.00
852.18	945.00
852.43	933.00
852.68	905.00
852.92	938.00
853.17	966.00
853.42	956.00
853.66	926.00
853.91	954.00
854.16	931.00
854.41	976.00
854.65	923.00
854.90	934.00
855.15	922.00
855.40	925.00
855.64	921.00
855.89	916.00
856.14	918.00
856.39	910.00
856.63	891.00
856.88	911.00
857.13	914.00
857.37	904.00
857.62	883.00
857.87	886.00
858.12	908.00
858.36	935.00
858.61	855.00
858.86	893.00
859.10	933.00
859.35	938.00
859.60	909.00
859.85	895.00
860.09	898.00
860.34	929.00
860.59	916.00
860.83	935.00
861.08	914.00
861.33	970.00
861.58	904.00
861.82	901.00
862.07	922.00
862.32	926.00
862.56	898.00
862.81	907.00
863.06	904.00
863.30	910.00
863.55	922.00
863.80	927.00
864.05	928.00
864.29	914.00
864.54	918.00
864.79	934.00
865.03	922.00
865.28	947.00
865.53	907.00
865.77	904.00
866.02	929.00
866.27	949.00
866.51	930.00
866.76	915.00
867.01	907.00
867.26	929.00
867.50	894.00
867.75	887.00
868.00	932.00
868.24	937.00
868.49	901.00
868.74	932.00
868.98	922.00
869.23	915.00
869.48	908.00
869.72	898.00
869.97	900.00
870.22	949.00
870.46	906.00
870.71	922.00
870.96	921.00
871.20	925.00
871.45	876.00
871.70	926.00
871.94	949.00
872.19	949.00
872.44	914.00
872.68	930.00
872.93	934.00
873.18	933.00
873.42	902.00
873.67	933.00
873.92	938.00
874.16	916.00
874.41	903.00
874.66	933.00
874.90	934.00
875.15	953.00
875.40	905.00
875.64	933.00
875.89	925.00
876.14	932.00
876.38	922.00
876.63	921.00
876.88	927.00
877.12	932.00
877.37	894.00
877.62	936.00
877.86	924.00
878.11	938.00
878.36	891.00
878.60	927.00
878.85	922.00
879.09	928.00
879.34	897.00
879.59	917.00
879.83	949.00
880.08	972.00
880.33	933.00
880.57	916.00
880.82	941.00
881.07	948.00
881.31	912.00
881.56	907.00
881.80	911.00
882.05	931.00
882.30	885.00
882.54	898.00
882.79	939.00
883.04	969.00
883.28	946.00
883.53	923.00
883.77	934.00
884.02	936.00
884.27	899.00
884.51	901.00
884.76	894.00
885.01	945.00
885.25	911.00
885.50	937.00
885.74	927.00
885.99	952.00
886.24	907.00
886.48	902.00
886.73	939.00
886.98	961.00
887.22	930.00
887.47	921.00
887.71	932.00
887.96	941.00
888.21	907.00
888.45	900.00
888.70	904.00
888.94	958.00
889.19	893.00
889.44	913.00
889.68	939.00
889.93	956.00
890.17	897.00
890.42	904.00
890.67	948.00
890.91	1018.00
891.16	911.00
891.40	895.00
891.65	933.00
891.90	962.00
892.14	890.00
892.39	917.00
892.63	930.00
892.88	952.00
893.13	911.00
893.37	906.00
893.62	893.00
893.86	933.00
894.11	892.00
894.36	914.00
894.60	913.00
894.85	905.00
895.09	907.00
895.34	960.00
895.59	923.00
895.83	926.00
896.08	892.00
896.32	901.00
896.57	920.00
896.81	936.00
897.06	912.00
897.31	921.00
897.55	934.00
897.80	908.00
898.04	864.00
898.29	911.00
898.53	914.00
898.78	943.00
899.03	929.00
899.27	914.00
899.52	930.00
899.76	945.00
900.01	908.00
900.25	922.00
900.50	916.00
900.75	941.00
900.99	913.00
901.24	979.00
901.48	923.00
901.73	934.00
901.97	886.00
902.22	930.00
902.47	944.00
902.71	945.00
902.96	898.00
903.20	904.00
903.45	941.00
903.69	934.00
903.94	915.00
904.18	889.00
904.43	912.00
904.68	915.00
904.92	890.00
905.17	921.00
905.41	937.00
905.66	940.00
905.90	938.00
906.15	914.00
906.39	937.00
906.64	930.00
906.88	910.00
907.13	908.00
907.38	936.00
907.62	949.00
907.87	900.00
908.11	944.00
908.36	921.00
908.60	938.00
908.85	883.00
909.09	923.00
909.34	927.00
909.58	923.00
909.83	883.00
910.07	890.00
910.32	967.00
910.56	971.00
910.81	888.00
911.06	933.00
911.30	933.00
911.55	922.00
911.79	902.00
912.04	917.00
912.28	898.00
912.53	944.00
912.77	937.00
913.02	926.00
913.26	927.00
913.51	925.00
913.75	888.00
914.00	917.00
914.24	923.00
914.49	948.00
914.73	904.00
914.98	942.00
915.22	947.00
915.47	929.00
915.71	898.00
915.96	909.00
916.20	921.00
916.45	899.00
916.69	877.00
916.94	921.00
917.18	941.00
917.43	945.00
917.67	889.00
917.92	875.00
918.16	942.00
918.41	958.00
918.65	907.00
918.90	885.00
919.14	865.00
919.39	914.00
919.63	902.00
919.88	902.00
920.12	935.00
920.37	936.00
920.61	893.00
920.86	928.00
921.10	937.00
921.35	925.00
921.59	908.00
921.84	917.00
922.08	951.00
922.33	980.00
922.57	896.00
922.82	900.00
923.06	920.00
923.31	937.00
923.55	873.00
923.80	924.00
924.04	910.00
924.29	932.00
924.53	897.00
924.78	898.00
925.02	889.00
925.27	913.00
925.51	908.00
925.76	928.00
926.00	906.00
926.25	912.00
926.49	897.00
926.73	940.00
926.98	932.00
927.22	959.00
927.47	922.00
927.71	898.00
927.96	923.00
928.20	931.00
928.45	909.00
928.69	966.00
928.94	953.00
929.18	926.00
929.43	925.00
929.67	921.00
929.91	944.00
930.16	965.00
930.40	910.00
930.65	893.00
930.89	905.00
931.14	966.00
931.38	899.00
931.63	913.00
931.87	925.00
932.12	926.00
932.36	881.00
932.60	900.00
932.85	925.00
933.09	913.00
933.34	875.00
933.58	919.00
933.83	925.00
934.07	944.00
934.32	915.00
934.56	928.00
934.80	959.00
935.05	965.00
935.29	919.00
935.54	921.00
935.78	924.00
936.03	940.00
936.27	891.00
936.52	901.00
936.76	917.00
937.00	933.00
937.25	904.00
937.49	936.00
937.74	946.00
937.98	951.00
938.23	883.00
938.47	907.00
938.71	922.00
938.96	926.00
939.20	903.00
939.45	899.00
939.69	918.00
939.94	958.00
940.18	894.00
940.42	914.00
940.67	932.00
940.91	926.00
941.16	900.00
941.40	898.00
941.64	906.00
941.89	932.00
942.13	876.00
942.38	929.00
942.62	998.00
942.87	971.00
943.11	929.00
943.35	909.00
943.60	945.00
943.84	958.00
944.09	922.00
944.33	930.00
944.57	932.00
944.82	911.00
945.06	898.00
945.31	922.00
945.55	916.00
945.79	953.00
946.04	889.00
946.28	916.00
946.53	915.00
946.77	932.00
947.01	894.00
947.26	938.00
947.50	917.00
947.75	919.00
947.99	927.00
948.23	927.00
948.48	922.00
948.72	927.00
948.97	910.00
949.21	930.00
949.45	927.00
949.70	968.00
949.94	929.00
950.18	927.00
950.43	926.00
950.67	950.00
950.92	912.00
951.16	899.00
951.40	910.00
951.65	914.00
951.89	907.00
952.13	915.00
952.38	937.00
952.62	951.00
952.87	895.00
953.11	937.00
953.35	961.00
953.60	952.00
953.84	862.00
954.08	875.00
954.33	921.00
954.57	930.00
954.82	912.00
955.06	905.00
955.30	921.00
955.55	934.00
955.79	916.00
956.03	923.00
956.28	908.00
956.52	933.00
956.76	903.00
957.01	929.00
957.25	918.00
957.50	930.00
957.74	910.00
957.98	905.00
958.23	929.00
958.47	928.00
958.71	910.00
958.96	927.00
959.20	948.00
959.44	940.00
959.69	894.00
959.93	920.00
960.17	936.00
960.42	945.00
960.66	924.00
960.90	930.00
961.15	914.00
961.39	929.00
961.64	876.00
961.88	892.00
962.12	933.00
962.37	957.00
962.61	918.00
962.85	910.00
963.10	929.00
963.34	917.00
963.58	894.00
963.83	922.00
964.07	925.00
964.31	934.00
964.56	924.00
964.80	897.00
965.04	910.00
965.29	923.00
965.53	884.00
965.77	897.00
966.02	881.00
966.26	907.00
966.50	882.00
966.74	916.00
966.99	947.00
967.23	931.00
967.47	894.00
967.72	915.00
967.96	934.00
968.20	934.00
968.45	886.00
968.69	918.00
968.93	912.00
969.18	929.00
969.42	920.00
969.66	917.00
969.91	910.00
970.15	944.00
970.39	903.00
970.64	929.00
970.88	940.00
971.12	940.00
971.36	912.00
971.61	899.00
971.85	916.00
972.09	906.00
972.34	888.00
972.58	916.00
972.82	946.00
973.07	957.00
973.31	880.00
973.55	918.00
973.79	935.00
974.04	961.00
974.28	924.00
974.52	905.00
974.77	913.00
975.01	968.00
975.25	925.00
975.50	923.00
975.74	936.00
975.98	941.00
976.22	918.00
976.47	908.00
976.71	930.00
976.95	929.00
977.20	926.00
977.44	910.00
977.68	926.00
977.92	930.00
978.17	910.00
978.41	902.00
978.65	929.00
978.90	917.00
979.14	905.00
979.38	928.00
979.62	933.00
979.87	936.00
980.11	893.00
980.35	920.00
980.59	925.00
980.84	931.00
981.08	919.00
981.32	919.00
981.57	934.00
981.81	939.00
982.05	913.00
982.29	917.00
982.54	925.00
982.78	929.00
983.02	904.00
983.26	913.00
983.51	944.00
983.75	956.00
983.99	910.00
984.23	930.00
984.48	927.00
984.72	952.00
984.96	901.00
985.20	896.00
985.45	970.00
985.69	964.00
985.93	921.00
986.17	922.00
986.42	911.00
986.66	923.00
986.90	875.00
987.14	888.00
987.39	921.00
987.63	893.00
987.87	885.00
988.11	892.00
988.36	919.00
988.60	925.00
988.84	920.00
989.08	891.00
989.33	931.00
989.57	945.00
989.81	883.00
990.05	890.00
990.30	920.00
990.54	917.00
990.78	890.00
991.02	891.00
991.27	907.00
991.51	940.00
991.75	906.00
991.99	925.00
992.23	893.00
992.48	897.00
992.72	883.00
992.96	907.00
993.20	903.00
993.45	928.00
993.69	934.00
993.93	895.00
994.17	926.00
994.41	927.00
994.66	887.00
994.90	895.00
995.14	929.00
995.38	936.00
995.63	908.00
995.87	913.00
996.11	952.00
996.35	934.00
996.59	887.00
996.84	896.00
997.08	936.00
997.32	922.00
997.56	893.00
997.80	882.00
998.05	898.00
998.29	909.00
998.53	912.00
998.77	913.00
999.01	930.00
999.26	937.00
999.50	909.00
999.74	903.00
999.98	916.00
1000.22	940.00
1000.47	886.00
1000.71	891.00
1000.95	947.00
1001.19	936.00
1001.43	913.00
1001.68	913.00
1001.92	908.00
1002.16	905.00
1002.40	877.00
1002.64	905.00
1002.89	912.00
1003.13	923.00
1003.37	911.00
1003.61	906.00
1003.85	927.00
1004.10	912.00
1004.34	901.00
1004.58	902.00
1004.82	922.00
1005.06	934.00
1005.30	903.00
1005.55	881.00
1005.79	929.00
1006.03	920.00
1006.27	903.00
1006.51	921.00
1006.76	937.00
1007.00	946.00
1007.24	914.00
1007.48	922.00
1007.72	957.00
1007.96	922.00
1008.21	893.00
1008.45	915.00
1008.69	937.00
1008.93	952.00
1009.17	919.00
1009.41	939.00
1009.66	944.00
1009.90	922.00
1010.14	894.00
1010.38	927.00
1010.62	940.00
1010.86	943.00
1011.10	901.00
1011.35	895.00
1011.59	908.00
1011.83	891.00
1012.07	881.00
1012.31	905.00
1012.55	915.00
1012.80	938.00
1013.04	919.00
1013.28	926.00
1013.52	924.00
1013.76	951.00
1014.00	890.00
1014.24	910.00
1014.49	958.00
1014.73	968.00
1014.97	946.00
1015.21	923.00
1015.45	921.00
1015.69	925.00
1015.93	910.00
1016.18	913.00
1016.42	960.00
1016.66	952.00
1016.90	909.00
1017.14	890.00
1017.38	911.00
1017.62	947.00
1017.87	918.00
1018.11	918.00
1018.35	946.00
1018.59	947.00
1018.83	888.00
1019.07	913.00
1019.31	933.00
1019.55	939.00
1019.80	904.00
1020.04	916.00
1020.28	926.00
1020.52	924.00
1020.76	894.00
1021.00	879.00
1021.24	898.00
1021.48	897.00
1021.73	904.00
1021.97	922.00
1022.21	933.00
1022.45	942.00
1022.69	917.00
1022.93	913.00
1023.17	930.00
1023.41	958.00
1023.65	909.00
1023.90	931.00
1024.14	964.00
1024.38	929.00
1024.62	872.00
1024.86	900.00
1025.10	923.00
1025.34	931.00
1025.58	897.00
1025.82	901.00
1026.07	937.00
1026.31	933.00
1026.55	892.00
1026.79	892.00
1027.03	923.00
1027.27	931.00
1027.51	877.00
1027.75	869.00
1027.99	888.00
1028.23	945.00
1028.47	920.00
1028.72	896.00
1028.96	937.00
1029.20	924.00
1029.44	912.00
1029.68	911.00
1029.92	927.00
1030.16	939.00
1030.40	885.00
1030.64	897.00
1030.88	897.00
1031.12	908.00
1031.37	880.00
1031.61	903.00
1031.85	937.00
1032.09	941.00
1032.33	901.00
1032.57	960.00
1032.81	917.00
1033.05	946.00
1033.29	919.00
1033.53	900.00
1033.77	965.00
1034.01	955.00
1034.25	904.00
1034.50	919.00
1034.74	935.00
1034.98	961.00
1035.22	912.00
1035.46	899.00
1035.70	951.00
1035.94	960.00
1036.18	920.00
1036.42	913.00
1036.66	916.00
1036.90	929.00
1037.14	890.00
1037.38	909.00
1037.62	928.00
1037.86	921.00
1038.10	918.00
1038.35	892.00
1038.59	927.00
1038.83	946.00
1039.07	926.00
1039.31	938.00
1039.55	903.00
1039.79	915.00
1040.03	871.00
1040.27	870.00
1040.51	939.00
1040.75	965.00
1040.99	904.00
1041.23	919.00
1041.47	932.00
1041.71	960.00
1041.95	924.00
1042.19	917.00
1042.43	955.00
1042.67	955.00
1042.91	910.00
1043.15	907.00
1043.39	955.00
1043.64	918.00
1043.88	897.00
1044.12	932.00
1044.36	977.00
1044.60	949.00
1044.84	918.00
1045.08	914.00
1045.32	923.00
1045.56	948.00
1045.80	916.00
1046.04	920.00
1046.28	963.00
1046.52	945.00
1046.76	872.00
1047.00	888.00
1047.24	944.00
1047.48	930.00
1047.72	906.00
1047.96	915.00
1048.20	931.00
1048.44	916.00
1048.68	884.00
1048.92	930.00
1049.16	935.00
1049.40	941.00
1049.64	904.00
1049.88	922.00
1050.12	944.00
1050.36	951.00
1050.60	917.00
1050.84	926.00
1051.08	916.00
1051.32	920.00
1051.56	913.00
1051.80	919.00
1052.04	906.00
1052.28	946.00
1052.52	901.00
1052.76	891.00
1053.00	913.00
1053.24	933.00
1053.48	898.00
1053.72	903.00
1053.96	933.00
1054.20	947.00
1054.44	908.00
1054.68	945.00
1054.92	966.00
1055.16	902.00
1055.40	882.00
1055.64	918.00
1055.88	941.00
1056.12	962.00
1056.36	877.00
1056.60	898.00
1056.84	946.00
1057.08	932.00
1057.32	900.00
1057.56	901.00
1057.80	942.00
1058.04	962.00
1058.28	904.00
1058.52	908.00
1058.76	938.00
1059.00	958.00
1059.24	896.00
1059.48	889.00
1059.72	937.00
1059.96	945.00
1060.20	930.00
1060.44	934.00
1060.68	956.00
1060.92	937.00
1061.16	872.00
1061.40	902.00
1061.64	915.00
1061.88	929.00
1062.11	885.00
1062.35	888.00
1062.59	913.00
1062.83	948.00
1063.07	910.00
1063.31	880.00
1063.55	921.00
1063.79	949.00
1064.03	906.00
1064.27	892.00
1064.51	941.00
1064.75	948.00
1064.99	914.00
1065.23	910.00
1065.47	917.00
1065.71	942.00
1065.95	907.00
1066.19	915.00
1066.43	947.00
1066.67	948.00
1066.91	924.00
1067.15	914.00
1067.38	928.00
1067.62	942.00
1067.86	893.00
1068.10	905.00
1068.34	965.00
1068.58	965.00
1068.82	904.00
1069.06	869.00
1069.30	921.00
1069.54	952.00
1069.78	922.00
1070.02	901.00
1070.26	943.00
1070.50	970.00
1070.74	920.00
1070.98	955.00
1071.21	933.00
1071.45	927.00
1071.69	895.00
1071.93	918.00
1072.17	930.00
1072.41	960.00
1072.65	922.00
1072.89	942.00
1073.13	936.00
1073.37	920.00
1073.61	897.00
1073.85	919.00
1074.09	916.00
1074.32	919.00
1074.56	916.00
1074.80	993.00
1075.04	1204.00
1075.28	1029.00
1075.52	912.00
1075.76	929.00
1076.00	955.00
1076.24	927.00
1076.48	931.00
1076.72	930.00
1076.96	954.00
1077.19	932.00
1077.43	893.00
1077.67	935.00
1077.91	938.00
1078.15	916.00
1078.39	923.00
1078.63	915.00
1078.87	923.00
1079.11	932.00
1079.35	899.00
1079.58	897.00
1079.82	923.00
1080.06	921.00
1080.30	888.00
1080.54	936.00
1080.78	958.00
1081.02	930.00
1081.26	899.00
1081.50	930.00
1081.74	932.00
1081.97	926.00
1082.21	898.00
1082.45	922.00
1082.69	910.00
1082.93	916.00
1083.17	924.00
1083.41	910.00
1083.65	949.00
1083.88	966.00
1084.12	910.00
1084.36	905.00
1084.60	923.00
1084.84	935.00
1085.08	882.00
1085.32	894.00
1085.56	944.00
1085.80	945.00
1086.03	907.00
1086.27	909.00
1086.51	923.00
1086.75	945.00
1086.99	906.00
1087.23	887.00
1087.47	938.00
1087.70	938.00
1087.94	896.00
1088.18	933.00
1088.42	985.00
1088.66	935.00
1088.90	875.00
1089.14	907.00
1089.38	911.00
1089.61	935.00
1089.85	916.00
1090.09	887.00
1090.33	941.00
1090.57	956.00
1090.81	878.00
1091.05	904.00
1091.28	934.00
1091.52	933.00
1091.76	894.00
1092.00	903.00
1092.24	933.00
1092.48	965.00
1092.71	900.00
1092.95	933.00
1093.19	947.00
1093.43	922.00
1093.67	886.00
1093.91	915.00
1094.15	934.00
1094.38	945.00
1094.62	890.00
1094.86	890.00
1095.10	909.00
1095.34	912.00
1095.58	898.00
1095.81	907.00
1096.05	950.00
1096.29	952.00
1096.53	900.00
1096.77	908.00
1097.01	908.00
1097.24	949.00
1097.48	897.00
1097.72	913.00
1097.96	934.00
1098.20	948.00
1098.44	896.00
1098.67	872.00
1098.91	929.00
1099.15	928.00
1099.39	881.00
1099.63	911.00
1099.86	946.00
1100.10	924.00
1100.34	907.00
1100.58	902.00
1100.82	921.00
1101.06	932.00
1101.29	904.00
1101.53	941.00
1101.77	942.00
1102.01	910.00
1102.25	902.00
1102.48	937.00
1102.72	976.00
1102.96	934.00
1103.20	862.00
1103.44	900.00
1103.67	906.00
1103.91	935.00
1104.15	889.00
1104.39	897.00
1104.63	931.00
1104.86	905.00
1105.10	894.00
1105.34	917.00
1105.58	925.00
1105.82	945.00
1106.05	922.00
1106.29	911.00
1106.53	916.00
1106.77	961.00
1107.01	883.00
1107.24	916.00
1107.48	982.00
1107.72	950.00
1107.96	878.00
1108.20	907.00
1108.43	912.00
1108.67	914.00
1108.91	916.00
1109.15	918.00
1109.39	929.00
1109.62	929.00
1109.86	887.00
1110.10	907.00
1110.34	972.00
1110.57	994.00
1110.81	924.00
1111.05	918.00
1111.29	965.00
1111.53	979.00
1111.76	917.00
1112.00	942.00
1112.24	957.00
1112.48	937.00
1112.71	877.00
1112.95	908.00
1113.19	948.00
1113.43	929.00
1113.66	873.00
1113.90	933.00
1114.14	934.00
1114.38	954.00
1114.62	901.00
1114.85	934.00
1115.09	933.00
1115.33	985.00
1115.57	924.00
1115.80	896.00
1116.04	928.00
1116.28	938.00
1116.52	922.00
1116.75	923.00
1116.99	957.00
1117.23	975.00
1117.47	941.00
1117.70	940.00
1117.94	986.00
1118.18	925.00
1118.42	913.00
1118.65	931.00
1118.89	940.00
1119.13	938.00
1119.37	896.00
1119.60	917.00
1119.84	944.00
>>>>>End Processed Spectral Data<<<<<
