SpectraSuite Data File
++++++++++++++++++++++++++++++++++++
Date: Fri Dec 06 14:42:59 CET 2024
User: student
Dark Spectrum Present: No
Reference Spectrum Present: No
Number of Sampled Component Spectra: 1
Spectrometers: HR4C155
Integration Time (usec): 100000 (HR4C155)
Spectra Averaged: 1 (HR4C155)
Boxcar Smoothing: 0 (HR4C155)
Correct for Electrical Dark: No (HR4C155)
Strobe/Lamp Enabled: No (HR4C155)
Correct for Detector Non-linearity: No (HR4C155)
Correct for Stray Light: No (HR4C155)
Number of Pixels in Processed Spectrum: 3648
>>>>>Begin Processed Spectral Data<<<<<
195.39	750.00
195.66	750.00
195.93	750.00
196.20	666.00
196.46	699.00
196.73	809.00
197.00	825.00
197.27	801.00
197.54	841.00
197.81	841.00
198.08	827.00
198.35	868.00
198.61	867.00
198.88	837.00
199.15	824.00
199.42	866.00
199.69	881.00
199.96	849.00
200.23	859.00
200.49	858.00
200.76	888.00
201.03	882.00
201.30	859.00
201.57	897.00
201.84	904.00
202.11	866.00
202.38	915.00
202.64	916.00
202.91	914.00
203.18	837.00
203.45	903.00
203.72	973.00
203.99	909.00
204.25	912.00
204.52	900.00
204.79	924.00
205.06	921.00
205.33	866.00
205.60	870.00
205.87	903.00
206.13	901.00
206.40	869.00
206.67	875.00
206.94	921.00
207.21	900.00
207.48	886.00
207.75	869.00
208.01	911.00
208.28	913.00
208.55	855.00
208.82	889.00
209.09	899.00
209.36	922.00
209.62	909.00
209.89	907.00
210.16	915.00
210.43	925.00
210.70	870.00
210.97	892.00
211.23	914.00
211.50	935.00
211.77	878.00
212.04	878.00
212.31	907.00
212.58	923.00
212.84	883.00
213.11	884.00
213.38	854.00
213.65	885.00
213.92	874.00
214.18	865.00
214.45	914.00
214.72	925.00
214.99	861.00
215.26	888.00
215.53	883.00
215.79	919.00
216.06	907.00
216.33	894.00
216.60	873.00
216.87	906.00
217.13	842.00
217.40	860.00
217.67	899.00
217.94	941.00
218.21	861.00
218.48	910.00
218.74	966.00
219.01	918.00
219.28	850.00
219.55	873.00
219.82	906.00
220.08	917.00
220.35	877.00
220.62	882.00
220.89	931.00
221.16	939.00
221.42	881.00
221.69	888.00
221.96	905.00
222.23	933.00
222.50	912.00
222.76	911.00
223.03	886.00
223.30	860.00
223.57	846.00
223.84	862.00
224.10	886.00
224.37	905.00
224.64	870.00
224.91	862.00
225.18	891.00
225.44	918.00
225.71	889.00
225.98	889.00
226.25	916.00
226.51	923.00
226.78	870.00
227.05	868.00
227.32	884.00
227.59	902.00
227.85	905.00
228.12	896.00
228.39	913.00
228.66	919.00
228.92	925.00
229.19	898.00
229.46	920.00
229.73	886.00
230.00	879.00
230.26	886.00
230.53	918.00
230.80	902.00
231.07	844.00
231.33	857.00
231.60	900.00
231.87	891.00
232.14	882.00
232.41	919.00
232.67	892.00
232.94	910.00
233.21	861.00
233.48	893.00
233.74	918.00
234.01	891.00
234.28	889.00
234.55	884.00
234.81	884.00
235.08	939.00
235.35	887.00
235.62	870.00
235.88	891.00
236.15	924.00
236.42	895.00
236.69	884.00
236.95	891.00
237.22	889.00
237.49	863.00
237.76	878.00
238.02	936.00
238.29	938.00
238.56	866.00
238.83	872.00
239.09	879.00
239.36	931.00
239.63	879.00
239.90	888.00
240.16	913.00
240.43	956.00
240.70	870.00
240.97	891.00
241.23	902.00
241.50	914.00
241.77	883.00
242.04	882.00
242.30	862.00
242.57	888.00
242.84	861.00
243.11	881.00
243.37	875.00
243.64	914.00
243.91	888.00
244.18	888.00
244.44	866.00
244.71	867.00
244.98	878.00
245.24	875.00
245.51	900.00
245.78	919.00
246.05	843.00
246.31	846.00
246.58	893.00
246.85	892.00
247.12	872.00
247.38	913.00
247.65	893.00
247.92	919.00
248.18	879.00
248.45	882.00
248.72	895.00
248.99	892.00
249.25	850.00
249.52	875.00
249.79	899.00
250.05	900.00
250.32	869.00
250.59	870.00
250.86	881.00
251.12	889.00
251.39	865.00
251.66	890.00
251.92	909.00
252.19	924.00
252.46	885.00
252.73	909.00
252.99	913.00
253.26	920.00
253.53	876.00
253.79	883.00
254.06	889.00
254.33	869.00
254.60	848.00
254.86	855.00
255.13	905.00
255.40	930.00
255.66	883.00
255.93	898.00
256.20	901.00
256.46	904.00
256.73	876.00
257.00	888.00
257.26	903.00
257.53	913.00
257.80	888.00
258.07	892.00
258.33	934.00
258.60	930.00
258.87	874.00
259.13	887.00
259.40	872.00
259.67	934.00
259.93	874.00
260.20	899.00
260.47	922.00
260.73	886.00
261.00	867.00
261.27	887.00
261.53	893.00
261.80	893.00
262.07	847.00
262.34	888.00
262.60	857.00
262.87	887.00
263.14	865.00
263.40	896.00
263.67	871.00
263.94	873.00
264.20	870.00
264.47	849.00
264.74	863.00
265.00	895.00
265.27	858.00
265.54	873.00
265.80	918.00
266.07	921.00
266.34	873.00
266.60	879.00
266.87	898.00
267.14	889.00
267.40	862.00
267.67	862.00
267.94	905.00
268.20	891.00
268.47	845.00
268.74	864.00
269.00	888.00
269.27	878.00
269.54	827.00
269.80	854.00
270.07	903.00
270.33	889.00
270.60	858.00
270.87	889.00
271.13	876.00
271.40	893.00
271.67	835.00
271.93	834.00
272.20	877.00
272.47	878.00
272.73	846.00
273.00	868.00
273.27	881.00
273.53	914.00
273.80	880.00
274.07	859.00
274.33	874.00
274.60	908.00
274.86	871.00
275.13	885.00
275.40	869.00
275.66	920.00
275.93	876.00
276.20	855.00
276.46	877.00
276.73	873.00
277.00	867.00
277.26	890.00
277.53	899.00
277.79	883.00
278.06	868.00
278.33	902.00
278.59	895.00
278.86	863.00
279.13	847.00
279.39	876.00
279.66	912.00
279.93	908.00
280.19	846.00
280.46	860.00
280.72	873.00
280.99	896.00
281.26	858.00
281.52	847.00
281.79	896.00
282.05	892.00
282.32	858.00
282.59	877.00
282.85	910.00
283.12	902.00
283.39	878.00
283.65	882.00
283.92	883.00
284.18	910.00
284.45	868.00
284.72	881.00
284.98	877.00
285.25	885.00
285.51	908.00
285.78	894.00
286.05	887.00
286.31	902.00
286.58	839.00
286.84	850.00
287.11	873.00
287.38	892.00
287.64	893.00
287.91	881.00
288.17	909.00
288.44	903.00
288.71	857.00
288.97	877.00
289.24	903.00
289.50	884.00
289.77	879.00
290.04	845.00
290.30	872.00
290.57	913.00
290.83	838.00
291.10	861.00
291.37	893.00
291.63	865.00
291.90	901.00
292.16	877.00
292.43	897.00
292.70	886.00
292.96	854.00
293.23	870.00
293.49	876.00
293.76	904.00
294.02	877.00
294.29	867.00
294.56	905.00
294.82	908.00
295.09	876.00
295.35	845.00
295.62	914.00
295.89	899.00
296.15	835.00
296.42	853.00
296.68	875.00
296.95	879.00
297.21	875.00
297.48	877.00
297.75	882.00
298.01	900.00
298.28	862.00
298.54	873.00
298.81	884.00
299.07	907.00
299.34	838.00
299.61	870.00
299.87	900.00
300.14	868.00
300.40	885.00
300.67	878.00
300.93	894.00
301.20	918.00
301.46	860.00
301.73	859.00
302.00	885.00
302.26	881.00
302.53	870.00
302.79	874.00
303.06	900.00
303.32	933.00
303.59	871.00
303.85	859.00
304.12	877.00
304.39	894.00
304.65	865.00
304.92	870.00
305.18	896.00
305.45	909.00
305.71	885.00
305.98	892.00
306.24	859.00
306.51	883.00
306.77	861.00
307.04	869.00
307.31	915.00
307.57	911.00
307.84	854.00
308.10	875.00
308.37	870.00
308.63	872.00
308.90	856.00
309.16	875.00
309.43	908.00
309.69	879.00
309.96	881.00
310.22	877.00
310.49	893.00
310.76	911.00
311.02	859.00
311.29	875.00
311.55	880.00
311.82	882.00
312.08	882.00
312.35	884.00
312.61	895.00
312.88	902.00
313.14	859.00
313.41	855.00
313.67	847.00
313.94	900.00
314.20	872.00
314.47	868.00
314.73	853.00
315.00	876.00
315.26	860.00
315.53	887.00
315.79	893.00
316.06	896.00
316.32	884.00
316.59	894.00
316.85	891.00
317.12	903.00
317.39	850.00
317.65	878.00
317.92	890.00
318.18	904.00
318.45	868.00
318.71	910.00
318.98	923.00
319.24	887.00
319.51	875.00
319.77	885.00
320.04	866.00
320.30	865.00
320.57	849.00
320.83	849.00
321.10	867.00
321.36	878.00
321.63	839.00
321.89	857.00
322.16	908.00
322.42	885.00
322.69	842.00
322.95	852.00
323.22	877.00
323.48	892.00
323.75	854.00
324.01	884.00
324.28	894.00
324.54	876.00
324.80	856.00
325.07	884.00
325.33	908.00
325.60	883.00
325.86	840.00
326.13	871.00
326.39	901.00
326.66	888.00
326.92	841.00
327.19	851.00
327.45	914.00
327.72	922.00
327.98	869.00
328.25	856.00
328.51	896.00
328.78	885.00
329.04	841.00
329.31	882.00
329.57	904.00
329.84	889.00
330.10	861.00
330.37	869.00
330.63	899.00
330.89	915.00
331.16	860.00
331.42	859.00
331.69	912.00
331.95	882.00
332.22	853.00
332.48	898.00
332.75	899.00
333.01	881.00
333.28	881.00
333.54	863.00
333.81	897.00
334.07	916.00
334.34	873.00
334.60	886.00
334.86	912.00
335.13	909.00
335.39	886.00
335.66	882.00
335.92	882.00
336.19	883.00
336.45	838.00
336.72	864.00
336.98	864.00
337.24	881.00
337.51	838.00
337.77	860.00
338.04	880.00
338.30	874.00
338.57	845.00
338.83	870.00
339.10	902.00
339.36	899.00
339.63	872.00
339.89	842.00
340.15	879.00
340.42	894.00
340.68	880.00
340.95	887.00
341.21	899.00
341.48	896.00
341.74	837.00
342.00	849.00
342.27	884.00
342.53	882.00
342.80	868.00
343.06	857.00
343.33	899.00
343.59	902.00
343.85	852.00
344.12	876.00
344.38	926.00
344.65	919.00
344.91	869.00
345.18	858.00
345.44	865.00
345.70	858.00
345.97	819.00
346.23	841.00
346.50	890.00
346.76	890.00
347.03	870.00
347.29	864.00
347.55	852.00
347.82	858.00
348.08	840.00
348.35	860.00
348.61	936.00
348.87	907.00
349.14	854.00
349.40	848.00
349.67	892.00
349.93	886.00
350.20	859.00
350.46	861.00
350.72	902.00
350.99	877.00
351.25	865.00
351.52	876.00
351.78	877.00
352.04	885.00
352.31	866.00
352.57	874.00
352.84	866.00
353.10	871.00
353.36	855.00
353.63	860.00
353.89	872.00
354.16	894.00
354.42	869.00
354.68	870.00
354.95	917.00
355.21	914.00
355.48	868.00
355.74	882.00
356.00	914.00
356.27	912.00
356.53	854.00
356.80	865.00
357.06	902.00
357.32	889.00
357.59	874.00
357.85	889.00
358.11	920.00
358.38	905.00
358.64	858.00
358.91	857.00
359.17	860.00
359.43	878.00
359.70	871.00
359.96	887.00
360.22	893.00
360.49	872.00
360.75	865.00
361.02	857.00
361.28	857.00
361.54	877.00
361.81	839.00
362.07	875.00
362.33	858.00
362.60	870.00
362.86	854.00
363.13	880.00
363.39	905.00
363.65	901.00
363.92	813.00
364.18	829.00
364.44	878.00
364.71	891.00
364.97	863.00
365.24	869.00
365.50	910.00
365.76	919.00
366.03	867.00
366.29	887.00
366.55	895.00
366.82	891.00
367.08	851.00
367.34	884.00
367.61	907.00
367.87	888.00
368.13	879.00
368.40	883.00
368.66	924.00
368.93	901.00
369.19	847.00
369.45	842.00
369.72	869.00
369.98	880.00
370.24	844.00
370.51	867.00
370.77	887.00
371.03	879.00
371.30	881.00
371.56	891.00
371.82	891.00
372.09	887.00
372.35	881.00
372.61	886.00
372.88	885.00
373.14	914.00
373.40	872.00
373.67	875.00
373.93	897.00
374.19	906.00
374.46	855.00
374.72	857.00
374.98	883.00
375.25	891.00
375.51	878.00
375.77	891.00
376.04	904.00
376.30	890.00
376.56	841.00
376.83	870.00
377.09	884.00
377.35	877.00
377.62	864.00
377.88	874.00
378.14	878.00
378.41	891.00
378.67	868.00
378.93	860.00
379.20	905.00
379.46	877.00
379.72	840.00
379.99	853.00
380.25	857.00
380.51	853.00
380.77	851.00
381.04	876.00
381.30	898.00
381.56	910.00
381.83	876.00
382.09	846.00
382.35	868.00
382.62	892.00
382.88	883.00
383.14	857.00
383.41	847.00
383.67	859.00
383.93	864.00
384.20	868.00
384.46	892.00
384.72	918.00
384.98	867.00
385.25	876.00
385.51	888.00
385.77	879.00
386.04	857.00
386.30	860.00
386.56	898.00
386.82	925.00
387.09	871.00
387.35	912.00
387.61	959.00
387.88	902.00
388.14	866.00
388.40	875.00
388.67	874.00
388.93	882.00
389.19	869.00
389.45	868.00
389.72	874.00
389.98	891.00
390.24	863.00
390.51	852.00
390.77	892.00
391.03	907.00
391.29	853.00
391.56	861.00
391.82	885.00
392.08	928.00
392.35	874.00
392.61	861.00
392.87	885.00
393.13	902.00
393.40	869.00
393.66	869.00
393.92	883.00
394.18	882.00
394.45	833.00
394.71	862.00
394.97	871.00
395.24	866.00
395.50	852.00
395.76	888.00
396.02	892.00
396.29	883.00
396.55	828.00
396.81	811.00
397.07	870.00
397.34	858.00
397.60	849.00
397.86	847.00
398.12	859.00
398.39	895.00
398.65	853.00
398.91	867.00
399.17	907.00
399.44	856.00
399.70	831.00
399.96	851.00
400.22	857.00
400.49	903.00
400.75	887.00
401.01	859.00
401.27	864.00
401.54	888.00
401.80	863.00
402.06	858.00
402.32	898.00
402.59	886.00
402.85	849.00
403.11	866.00
403.37	863.00
403.64	901.00
403.90	858.00
404.16	863.00
404.42	873.00
404.69	868.00
404.95	864.00
405.21	832.00
405.47	852.00
405.74	905.00
406.00	855.00
406.26	857.00
406.52	891.00
406.79	903.00
407.05	858.00
407.31	865.00
407.57	859.00
407.83	889.00
408.10	838.00
408.36	855.00
408.62	882.00
408.88	886.00
409.15	857.00
409.41	833.00
409.67	859.00
409.93	897.00
410.20	866.00
410.46	845.00
410.72	861.00
410.98	869.00
411.24	857.00
411.51	858.00
411.77	862.00
412.03	887.00
412.29	897.00
412.55	899.00
412.82	873.00
413.08	909.00
413.34	875.00
413.60	868.00
413.87	867.00
414.13	905.00
414.39	841.00
414.65	861.00
414.91	875.00
415.18	863.00
415.44	828.00
415.70	842.00
415.96	879.00
416.22	883.00
416.49	844.00
416.75	845.00
417.01	877.00
417.27	891.00
417.53	869.00
417.80	872.00
418.06	885.00
418.32	890.00
418.58	840.00
418.84	858.00
419.11	890.00
419.37	885.00
419.63	865.00
419.89	863.00
420.15	870.00
420.42	865.00
420.68	844.00
420.94	866.00
421.20	869.00
421.46	884.00
421.72	872.00
421.99	851.00
422.25	882.00
422.51	888.00
422.77	857.00
423.03	873.00
423.30	880.00
423.56	897.00
423.82	899.00
424.08	874.00
424.34	883.00
424.60	894.00
424.87	850.00
425.13	851.00
425.39	878.00
425.65	884.00
425.91	856.00
426.18	890.00
426.44	884.00
426.70	856.00
426.96	828.00
427.22	840.00
427.48	867.00
427.75	866.00
428.01	835.00
428.27	877.00
428.53	888.00
428.79	861.00
429.05	851.00
429.32	860.00
429.58	905.00
429.84	875.00
430.10	865.00
430.36	874.00
430.62	896.00
430.88	894.00
431.15	854.00
431.41	879.00
431.67	881.00
431.93	878.00
432.19	820.00
432.45	853.00
432.72	893.00
432.98	887.00
433.24	891.00
433.50	962.00
433.76	877.00
434.02	863.00
434.28	845.00
434.55	861.00
434.81	882.00
435.07	878.00
435.33	847.00
435.59	855.00
435.85	866.00
436.11	887.00
436.38	837.00
436.64	854.00
436.90	866.00
437.16	881.00
437.42	848.00
437.68	858.00
437.94	882.00
438.21	873.00
438.47	885.00
438.73	888.00
438.99	887.00
439.25	876.00
439.51	860.00
439.77	885.00
440.03	883.00
440.30	889.00
440.56	871.00
440.82	900.00
441.08	889.00
441.34	893.00
441.60	847.00
441.86	872.00
442.12	892.00
442.39	885.00
442.65	851.00
442.91	854.00
443.17	854.00
443.43	873.00
443.69	861.00
443.95	862.00
444.21	859.00
444.47	887.00
444.74	852.00
445.00	865.00
445.26	884.00
445.52	873.00
445.78	847.00
446.04	852.00
446.30	902.00
446.56	881.00
446.82	845.00
447.09	852.00
447.35	878.00
447.61	881.00
447.87	857.00
448.13	861.00
448.39	902.00
448.65	886.00
448.91	842.00
449.17	854.00
449.43	860.00
449.70	878.00
449.96	841.00
450.22	848.00
450.48	879.00
450.74	894.00
451.00	861.00
451.26	844.00
451.52	860.00
451.78	878.00
452.04	842.00
452.31	877.00
452.57	887.00
452.83	856.00
453.09	845.00
453.35	854.00
453.61	880.00
453.87	874.00
454.13	886.00
454.39	886.00
454.65	918.00
454.91	918.00
455.17	849.00
455.44	853.00
455.70	879.00
455.96	868.00
456.22	842.00
456.48	843.00
456.74	880.00
457.00	854.00
457.26	810.00
457.52	855.00
457.78	868.00
458.04	879.00
458.30	843.00
458.56	858.00
458.82	855.00
459.09	836.00
459.35	797.00
459.61	833.00
459.87	879.00
460.13	892.00
460.39	853.00
460.65	842.00
460.91	892.00
461.17	863.00
461.43	829.00
461.69	857.00
461.95	881.00
462.21	848.00
462.47	854.00
462.73	887.00
462.99	898.00
463.26	886.00
463.52	826.00
463.78	828.00
464.04	843.00
464.30	854.00
464.56	834.00
464.82	876.00
465.08	908.00
465.34	906.00
465.60	863.00
465.86	862.00
466.12	851.00
466.38	848.00
466.64	838.00
466.90	869.00
467.16	855.00
467.42	889.00
467.68	844.00
467.94	860.00
468.20	896.00
468.46	880.00
468.72	853.00
468.98	872.00
469.25	886.00
469.51	860.00
469.77	866.00
470.03	864.00
470.29	867.00
470.55	880.00
470.81	857.00
471.07	860.00
471.33	881.00
471.59	883.00
471.85	851.00
472.11	863.00
472.37	869.00
472.63	846.00
472.89	871.00
473.15	867.00
473.41	875.00
473.67	862.00
473.93	822.00
474.19	846.00
474.45	851.00
474.71	873.00
474.97	843.00
475.23	840.00
475.49	862.00
475.75	852.00
476.01	838.00
476.27	878.00
476.53	894.00
476.79	900.00
477.05	856.00
477.31	859.00
477.57	899.00
477.83	878.00
478.09	825.00
478.35	867.00
478.61	898.00
478.87	879.00
479.13	842.00
479.39	897.00
479.65	911.00
479.91	900.00
480.17	851.00
480.43	876.00
480.69	864.00
480.95	885.00
481.21	866.00
481.47	861.00
481.73	870.00
481.99	864.00
482.25	838.00
482.51	830.00
482.77	876.00
483.03	886.00
483.29	877.00
483.55	870.00
483.81	902.00
484.07	893.00
484.33	851.00
484.59	859.00
484.85	877.00
485.11	876.00
485.37	846.00
485.63	862.00
485.89	864.00
486.15	884.00
486.41	840.00
486.67	867.00
486.93	867.00
487.19	854.00
487.45	852.00
487.71	854.00
487.97	900.00
488.23	893.00
488.49	833.00
488.75	843.00
489.01	880.00
489.27	905.00
489.53	845.00
489.79	829.00
490.05	877.00
490.31	888.00
490.57	869.00
490.83	917.00
491.08	876.00
491.34	858.00
491.60	841.00
491.86	879.00
492.12	909.00
492.38	915.00
492.64	854.00
492.90	868.00
493.16	915.00
493.42	866.00
493.68	844.00
493.94	870.00
494.20	858.00
494.46	855.00
494.72	848.00
494.98	853.00
495.24	861.00
495.50	865.00
495.76	866.00
496.02	875.00
496.28	893.00
496.54	874.00
496.80	850.00
497.05	840.00
497.31	876.00
497.57	881.00
497.83	850.00
498.09	857.00
498.35	906.00
498.61	891.00
498.87	871.00
499.13	869.00
499.39	887.00
499.65	866.00
499.91	858.00
500.17	850.00
500.43	910.00
500.69	942.00
500.95	841.00
501.20	881.00
501.46	897.00
501.72	891.00
501.98	884.00
502.24	897.00
502.50	920.00
502.76	878.00
503.02	866.00
503.28	860.00
503.54	926.00
503.80	936.00
504.06	896.00
504.32	878.00
504.58	882.00
504.83	878.00
505.09	844.00
505.35	869.00
505.61	860.00
505.87	882.00
506.13	878.00
506.39	859.00
506.65	896.00
506.91	916.00
507.17	853.00
507.43	858.00
507.68	883.00
507.94	898.00
508.20	845.00
508.46	844.00
508.72	900.00
508.98	909.00
509.24	851.00
509.50	879.00
509.76	854.00
510.02	879.00
510.28	854.00
510.53	860.00
510.79	888.00
511.05	885.00
511.31	850.00
511.57	862.00
511.83	881.00
512.09	900.00
512.35	852.00
512.61	853.00
512.87	858.00
513.12	884.00
513.38	844.00
513.64	865.00
513.90	881.00
514.16	904.00
514.42	873.00
514.68	872.00
514.94	889.00
515.20	876.00
515.45	848.00
515.71	875.00
515.97	882.00
516.23	867.00
516.49	849.00
516.75	857.00
517.01	860.00
517.27	867.00
517.53	844.00
517.78	845.00
518.04	879.00
518.30	854.00
518.56	839.00
518.82	879.00
519.08	890.00
519.34	841.00
519.60	861.00
519.85	875.00
520.11	871.00
520.37	864.00
520.63	847.00
520.89	860.00
521.15	870.00
521.41	875.00
521.66	859.00
521.92	868.00
522.18	880.00
522.44	897.00
522.70	858.00
522.96	836.00
523.22	873.00
523.48	871.00
523.73	857.00
523.99	863.00
524.25	895.00
524.51	886.00
524.77	854.00
525.03	849.00
525.29	876.00
525.54	886.00
525.80	856.00
526.06	848.00
526.32	867.00
526.58	859.00
526.84	838.00
527.09	838.00
527.35	838.00
527.61	843.00
527.87	849.00
528.13	895.00
528.39	870.00
528.65	852.00
528.90	839.00
529.16	850.00
529.42	829.00
529.68	853.00
529.94	835.00
530.20	852.00
530.45	842.00
530.71	865.00
530.97	836.00
531.23	852.00
531.49	885.00
531.75	868.00
532.00	849.00
532.26	854.00
532.52	876.00
532.78	864.00
533.04	830.00
533.30	861.00
533.55	886.00
533.81	869.00
534.07	829.00
534.33	848.00
534.59	883.00
534.85	875.00
535.10	842.00
535.36	844.00
535.62	870.00
535.88	870.00
536.14	816.00
536.39	843.00
536.65	898.00
536.91	908.00
537.17	840.00
537.43	847.00
537.69	896.00
537.94	878.00
538.20	823.00
538.46	845.00
538.72	868.00
538.98	872.00
539.23	833.00
539.49	836.00
539.75	894.00
540.01	869.00
540.27	843.00
540.52	882.00
540.78	895.00
541.04	885.00
541.30	825.00
541.56	827.00
541.81	909.00
542.07	949.00
542.33	853.00
542.59	864.00
542.85	888.00
543.10	880.00
543.36	850.00
543.62	885.00
543.88	869.00
544.14	863.00
544.39	842.00
544.65	860.00
544.91	887.00
545.17	872.00
545.43	854.00
545.68	853.00
545.94	875.00
546.20	885.00
546.46	850.00
546.71	856.00
546.97	879.00
547.23	872.00
547.49	830.00
547.75	861.00
548.00	889.00
548.26	898.00
548.52	835.00
548.78	859.00
549.03	865.00
549.29	865.00
549.55	835.00
549.81	863.00
550.07	864.00
550.32	880.00
550.58	852.00
550.84	877.00
551.10	875.00
551.35	853.00
551.61	840.00
551.87	865.00
552.13	892.00
552.39	856.00
552.64	826.00
552.90	847.00
553.16	862.00
553.42	880.00
553.67	841.00
553.93	846.00
554.19	889.00
554.45	920.00
554.70	870.00
554.96	851.00
555.22	869.00
555.48	882.00
555.73	857.00
555.99	870.00
556.25	879.00
556.51	866.00
556.76	861.00
557.02	857.00
557.28	878.00
557.54	859.00
557.79	834.00
558.05	864.00
558.31	867.00
558.57	876.00
558.82	839.00
559.08	836.00
559.34	835.00
559.60	873.00
559.85	867.00
560.11	870.00
560.37	859.00
560.63	857.00
560.88	829.00
561.14	842.00
561.40	874.00
561.66	850.00
561.91	852.00
562.17	853.00
562.43	864.00
562.68	886.00
562.94	881.00
563.20	881.00
563.46	875.00
563.71	904.00
563.97	849.00
564.23	874.00
564.49	892.00
564.74	877.00
565.00	840.00
565.26	854.00
565.51	865.00
565.77	853.00
566.03	826.00
566.29	856.00
566.54	842.00
566.80	864.00
567.06	849.00
567.31	872.00
567.57	897.00
567.83	884.00
568.09	872.00
568.34	850.00
568.60	872.00
568.86	888.00
569.11	861.00
569.37	850.00
569.63	861.00
569.89	882.00
570.14	837.00
570.40	850.00
570.66	875.00
570.91	880.00
571.17	854.00
571.43	877.00
571.69	904.00
571.94	909.00
572.20	852.00
572.46	862.00
572.71	893.00
572.97	877.00
573.23	833.00
573.48	830.00
573.74	852.00
574.00	876.00
574.26	850.00
574.51	856.00
574.77	901.00
575.03	871.00
575.28	853.00
575.54	837.00
575.80	843.00
576.05	877.00
576.31	835.00
576.57	847.00
576.82	880.00
577.08	878.00
577.34	844.00
577.59	859.00
577.85	873.00
578.11	856.00
578.37	864.00
578.62	844.00
578.88	882.00
579.14	882.00
579.39	863.00
579.65	873.00
579.91	868.00
580.16	888.00
580.42	853.00
580.68	868.00
580.93	880.00
581.19	872.00
581.45	844.00
581.70	852.00
581.96	888.00
582.22	904.00
582.47	855.00
582.73	862.00
582.99	894.00
583.24	871.00
583.50	838.00
583.76	854.00
584.01	877.00
584.27	869.00
584.53	867.00
584.78	878.00
585.04	848.00
585.30	865.00
585.55	857.00
585.81	861.00
586.07	892.00
586.32	895.00
586.58	859.00
586.83	869.00
587.09	878.00
587.35	875.00
587.60	855.00
587.86	858.00
588.12	867.00
588.37	885.00
588.63	851.00
588.89	871.00
589.14	893.00
589.40	891.00
589.66	860.00
589.91	855.00
590.17	886.00
590.43	848.00
590.68	837.00
590.94	852.00
591.19	895.00
591.45	900.00
591.71	857.00
591.96	866.00
592.22	874.00
592.48	908.00
592.73	863.00
592.99	862.00
593.25	874.00
593.50	878.00
593.76	851.00
594.01	856.00
594.27	886.00
594.53	875.00
594.78	855.00
595.04	868.00
595.30	877.00
595.55	870.00
595.81	847.00
596.06	882.00
596.32	919.00
596.58	908.00
596.83	878.00
597.09	889.00
597.35	880.00
597.60	878.00
597.86	849.00
598.11	866.00
598.37	905.00
598.63	903.00
598.88	870.00
599.14	875.00
599.39	902.00
599.65	890.00
599.91	833.00
600.16	881.00
600.42	916.00
600.67	923.00
600.93	861.00
601.19	900.00
601.44	947.00
601.70	932.00
601.95	866.00
602.21	881.00
602.47	888.00
602.72	892.00
602.98	863.00
603.23	888.00
603.49	912.00
603.75	909.00
604.00	876.00
604.26	889.00
604.51	884.00
604.77	934.00
605.03	862.00
605.28	870.00
605.54	937.00
605.79	944.00
606.05	875.00
606.31	891.00
606.56	933.00
606.82	944.00
607.07	908.00
607.33	925.00
607.59	942.00
607.84	921.00
608.10	875.00
608.35	910.00
608.61	944.00
608.86	947.00
609.12	935.00
609.38	948.00
609.63	963.00
609.89	956.00
610.14	898.00
610.40	933.00
610.65	959.00
610.91	956.00
611.17	930.00
611.42	950.00
611.68	997.00
611.93	993.00
612.19	972.00
612.44	989.00
612.70	1022.00
612.96	979.00
613.21	950.00
613.47	959.00
613.72	985.00
613.98	994.00
614.23	979.00
614.49	1016.00
614.75	1043.00
615.00	1021.00
615.26	996.00
615.51	1007.00
615.77	1040.00
616.02	1065.00
616.28	1052.00
616.53	1068.00
616.79	1068.00
617.05	1049.00
617.30	1030.00
617.56	1072.00
617.81	1127.00
618.07	1114.00
618.32	1108.00
618.58	1157.00
618.83	1188.00
619.09	1219.00
619.34	1206.00
619.60	1176.00
619.86	1206.00
620.11	1242.00
620.37	1203.00
620.62	1202.00
620.88	1283.00
621.13	1322.00
621.39	1327.00
621.64	1353.00
621.90	1413.00
622.15	1364.00
622.41	1362.00
622.66	1413.00
622.92	1442.00
623.18	1433.00
623.43	1407.00
623.69	1491.00
623.94	1597.00
624.20	1619.00
624.45	1616.00
624.71	1648.00
624.96	1723.00
625.22	1841.00
625.47	1840.00
625.73	1858.00
625.98	1901.00
626.24	1984.00
626.49	1980.00
626.75	1992.00
627.00	2007.00
627.26	2141.00
627.51	2306.00
627.77	2451.00
628.02	2520.00
628.28	2647.00
628.53	2756.00
628.79	2785.00
629.05	2775.00
629.30	2817.00
629.56	2902.00
629.81	3166.00
630.07	3405.00
630.32	3518.00
630.58	3506.00
630.83	3595.00
631.09	3729.00
631.34	3816.00
631.60	3927.00
631.85	4352.00
632.11	4734.00
632.36	5027.00
632.62	5511.00
632.87	5572.00
633.13	5211.00
633.38	5112.00
633.64	5363.00
633.89	5800.00
634.15	5902.00
634.40	5616.00
634.66	5733.00
634.91	5804.00
635.17	5678.00
635.42	5444.00
635.68	5021.00
635.93	4737.00
636.18	4941.00
636.44	5385.00
636.69	5844.00
636.95	6112.00
637.20	5857.00
637.46	5894.00
637.71	5534.00
637.97	5236.00
638.22	4893.00
638.48	4540.00
638.73	4301.00
638.99	4182.00
639.24	3971.00
639.50	3921.00
639.75	3973.00
640.01	3938.00
640.26	3766.00
640.52	3683.00
640.77	3316.00
641.03	3084.00
641.28	2970.00
641.54	2849.00
641.79	2761.00
642.04	2701.00
642.30	2562.00
642.55	2352.00
642.81	2148.00
643.06	2090.00
643.32	2128.00
643.57	2101.00
643.83	2005.00
644.08	1900.00
644.34	1800.00
644.59	1836.00
644.85	1850.00
645.10	1780.00
645.35	1714.00
645.61	1677.00
645.86	1607.00
646.12	1540.00
646.37	1469.00
646.63	1436.00
646.88	1354.00
647.14	1346.00
647.39	1371.00
647.65	1373.00
647.90	1245.00
648.15	1221.00
648.41	1228.00
648.66	1258.00
648.92	1235.00
649.17	1196.00
649.43	1137.00
649.68	1137.00
649.94	1116.00
650.19	1113.00
650.44	1109.00
650.70	1103.00
650.95	1046.00
651.21	1053.00
651.46	1070.00
651.72	1055.00
651.97	1031.00
652.23	998.00
652.48	1022.00
652.73	1013.00
652.99	978.00
653.24	990.00
653.50	980.00
653.75	989.00
654.01	972.00
654.26	958.00
654.51	943.00
654.77	962.00
655.02	949.00
655.28	919.00
655.53	933.00
655.79	946.00
656.04	943.00
656.29	940.00
656.55	917.00
656.80	946.00
657.06	902.00
657.31	900.00
657.56	906.00
657.82	908.00
658.07	901.00
658.33	910.00
658.58	922.00
658.84	919.00
659.09	877.00
659.34	904.00
659.60	902.00
659.85	892.00
660.11	868.00
660.36	899.00
660.61	894.00
660.87	868.00
661.12	853.00
661.38	891.00
661.63	894.00
661.88	902.00
662.14	897.00
662.39	885.00
662.65	922.00
662.90	946.00
663.15	873.00
663.41	872.00
663.66	910.00
663.92	921.00
664.17	874.00
664.42	892.00
664.68	908.00
664.93	891.00
665.19	870.00
665.44	866.00
665.69	853.00
665.95	880.00
666.20	845.00
666.45	894.00
666.71	902.00
666.96	894.00
667.22	842.00
667.47	871.00
667.72	877.00
667.98	886.00
668.23	847.00
668.49	899.00
668.74	891.00
668.99	892.00
669.25	860.00
669.50	855.00
669.75	878.00
670.01	876.00
670.26	823.00
670.52	851.00
670.77	889.00
671.02	868.00
671.28	835.00
671.53	872.00
671.78	874.00
672.04	889.00
672.29	856.00
672.54	847.00
672.80	870.00
673.05	879.00
673.31	816.00
673.56	857.00
673.81	889.00
674.07	870.00
674.32	862.00
674.57	866.00
674.83	865.00
675.08	880.00
675.33	861.00
675.59	865.00
675.84	890.00
676.09	878.00
676.35	859.00
676.60	850.00
676.86	869.00
677.11	901.00
677.36	858.00
677.62	870.00
677.87	922.00
678.12	931.00
678.38	851.00
678.63	873.00
678.88	889.00
679.14	906.00
679.39	846.00
679.64	871.00
679.90	864.00
680.15	882.00
680.40	844.00
680.66	834.00
680.91	868.00
681.16	866.00
681.42	833.00
681.67	850.00
681.92	866.00
682.18	891.00
682.43	837.00
682.68	842.00
682.94	858.00
683.19	862.00
683.44	844.00
683.70	878.00
683.95	870.00
684.20	862.00
684.46	853.00
684.71	890.00
684.96	870.00
685.22	890.00
685.47	864.00
685.72	861.00
685.98	867.00
686.23	842.00
686.48	848.00
686.74	886.00
686.99	908.00
687.24	892.00
687.50	845.00
687.75	865.00
688.00	870.00
688.25	881.00
688.51	854.00
688.76	880.00
689.01	861.00
689.27	857.00
689.52	809.00
689.77	839.00
690.03	831.00
690.28	851.00
690.53	854.00
690.79	856.00
691.04	881.00
691.29	868.00
691.54	829.00
691.80	867.00
692.05	881.00
692.30	868.00
692.56	851.00
692.81	867.00
693.06	862.00
693.32	844.00
693.57	841.00
693.82	869.00
694.07	871.00
694.33	875.00
694.58	837.00
694.83	861.00
695.09	860.00
695.34	884.00
695.59	858.00
695.84	860.00
696.10	873.00
696.35	861.00
696.60	821.00
696.86	852.00
697.11	871.00
697.36	877.00
697.61	839.00
697.87	868.00
698.12	849.00
698.37	853.00
698.63	843.00
698.88	841.00
699.13	868.00
699.38	871.00
699.64	836.00
699.89	842.00
700.14	856.00
700.39	866.00
700.65	850.00
700.90	879.00
701.15	867.00
701.40	876.00
701.66	840.00
701.91	858.00
702.16	869.00
702.42	859.00
702.67	821.00
702.92	838.00
703.17	848.00
703.43	863.00
703.68	850.00
703.93	884.00
704.18	902.00
704.44	863.00
704.69	839.00
704.94	873.00
705.19	861.00
705.45	890.00
705.70	873.00
705.95	850.00
706.20	863.00
706.46	880.00
706.71	864.00
706.96	865.00
707.21	869.00
707.47	879.00
707.72	858.00
707.97	854.00
708.22	880.00
708.48	880.00
708.73	840.00
708.98	838.00
709.23	873.00
709.49	869.00
709.74	845.00
709.99	853.00
710.24	865.00
710.50	862.00
710.75	858.00
711.00	874.00
711.25	880.00
711.50	862.00
711.76	845.00
712.01	845.00
712.26	844.00
712.51	894.00
712.77	852.00
713.02	854.00
713.27	842.00
713.52	854.00
713.78	841.00
714.03	870.00
714.28	840.00
714.53	872.00
714.78	850.00
715.04	872.00
715.29	876.00
715.54	867.00
715.79	831.00
716.05	853.00
716.30	858.00
716.55	882.00
716.80	859.00
717.05	873.00
717.31	865.00
717.56	859.00
717.81	844.00
718.06	856.00
718.31	851.00
718.57	870.00
718.82	832.00
719.07	877.00
719.32	862.00
719.57	883.00
719.83	842.00
720.08	860.00
720.33	854.00
720.58	843.00
720.83	823.00
721.09	881.00
721.34	860.00
721.59	886.00
721.84	836.00
722.09	853.00
722.35	871.00
722.60	854.00
722.85	823.00
723.10	869.00
723.35	854.00
723.61	865.00
723.86	862.00
724.11	864.00
724.36	871.00
724.61	852.00
724.87	846.00
725.12	853.00
725.37	852.00
725.62	848.00
725.87	834.00
726.12	839.00
726.38	845.00
726.63	869.00
726.88	837.00
727.13	868.00
727.38	853.00
727.64	863.00
727.89	830.00
728.14	848.00
728.39	843.00
728.64	869.00
728.89	851.00
729.15	866.00
729.40	870.00
729.65	875.00
729.90	829.00
730.15	860.00
730.40	871.00
730.66	865.00
730.91	839.00
731.16	853.00
731.41	853.00
731.66	883.00
731.91	855.00
732.17	870.00
732.42	880.00
732.67	850.00
732.92	823.00
733.17	862.00
733.42	871.00
733.68	870.00
733.93	841.00
734.18	843.00
734.43	841.00
734.68	844.00
734.93	838.00
735.18	868.00
735.44	867.00
735.69	857.00
735.94	822.00
736.19	854.00
736.44	856.00
736.69	898.00
736.95	849.00
737.20	860.00
737.45	873.00
737.70	876.00
737.95	857.00
738.20	882.00
738.45	880.00
738.70	876.00
738.96	853.00
739.21	864.00
739.46	891.00
739.71	897.00
739.96	843.00
740.21	865.00
740.46	920.00
740.72	887.00
740.97	844.00
741.22	876.00
741.47	854.00
741.72	880.00
741.97	841.00
742.22	844.00
742.47	881.00
742.73	866.00
742.98	827.00
743.23	830.00
743.48	822.00
743.73	856.00
743.98	866.00
744.23	855.00
744.48	881.00
744.74	874.00
744.99	828.00
745.24	862.00
745.49	868.00
745.74	872.00
745.99	839.00
746.24	856.00
746.49	857.00
746.74	856.00
747.00	856.00
747.25	845.00
747.50	826.00
747.75	836.00
748.00	804.00
748.25	840.00
748.50	851.00
748.75	885.00
749.00	884.00
749.26	897.00
749.51	856.00
749.76	884.00
750.01	830.00
750.26	865.00
750.51	884.00
750.76	875.00
751.01	830.00
751.26	858.00
751.51	844.00
751.77	863.00
752.02	858.00
752.27	852.00
752.52	843.00
752.77	866.00
753.02	845.00
753.27	858.00
753.52	859.00
753.77	867.00
754.02	849.00
754.27	863.00
754.52	848.00
754.78	858.00
755.03	856.00
755.28	864.00
755.53	874.00
755.78	862.00
756.03	829.00
756.28	856.00
756.53	870.00
756.78	873.00
757.03	843.00
757.28	855.00
757.53	870.00
757.79	852.00
758.04	839.00
758.29	884.00
758.54	890.00
758.79	876.00
759.04	827.00
759.29	830.00
759.54	851.00
759.79	856.00
760.04	865.00
760.29	859.00
760.54	842.00
760.79	863.00
761.04	831.00
761.29	852.00
761.55	850.00
761.80	858.00
762.05	837.00
762.30	873.00
762.55	859.00
762.80	869.00
763.05	858.00
763.30	868.00
763.55	869.00
763.80	873.00
764.05	830.00
764.30	860.00
764.55	873.00
764.80	862.00
765.05	821.00
765.30	861.00
765.55	858.00
765.80	847.00
766.05	810.00
766.30	849.00
766.56	859.00
766.81	866.00
767.06	849.00
767.31	853.00
767.56	848.00
767.81	862.00
768.06	850.00
768.31	864.00
768.56	857.00
768.81	902.00
769.06	847.00
769.31	860.00
769.56	859.00
769.81	886.00
770.06	834.00
770.31	825.00
770.56	866.00
770.81	846.00
771.06	827.00
771.31	856.00
771.56	856.00
771.81	870.00
772.06	837.00
772.31	872.00
772.56	874.00
772.81	881.00
773.06	842.00
773.31	867.00
773.56	853.00
773.81	836.00
774.06	826.00
774.31	866.00
774.56	866.00
774.81	885.00
775.06	862.00
775.31	881.00
775.56	869.00
775.81	869.00
776.06	839.00
776.31	851.00
776.56	852.00
776.82	869.00
777.07	845.00
777.32	846.00
777.57	854.00
777.82	880.00
778.07	838.00
778.32	848.00
778.57	869.00
778.82	884.00
779.07	834.00
779.32	844.00
779.57	838.00
779.82	845.00
780.07	840.00
780.32	859.00
780.56	861.00
780.81	890.00
781.06	829.00
781.31	858.00
781.56	881.00
781.81	871.00
782.06	836.00
782.31	874.00
782.56	867.00
782.81	902.00
783.06	846.00
783.31	850.00
783.56	863.00
783.81	888.00
784.06	857.00
784.31	858.00
784.56	841.00
784.81	894.00
785.06	849.00
785.31	849.00
785.56	841.00
785.81	857.00
786.06	818.00
786.31	855.00
786.56	840.00
786.81	861.00
787.06	854.00
787.31	872.00
787.56	852.00
787.81	830.00
788.06	839.00
788.31	879.00
788.56	850.00
788.81	888.00
789.06	863.00
789.31	870.00
789.56	879.00
789.81	868.00
790.06	838.00
790.31	884.00
790.56	860.00
790.80	851.00
791.05	830.00
791.30	837.00
791.55	840.00
791.80	865.00
792.05	841.00
792.30	850.00
792.55	841.00
792.80	858.00
793.05	851.00
793.30	851.00
793.55	878.00
793.80	886.00
794.05	831.00
794.30	852.00
794.55	866.00
794.80	881.00
795.05	842.00
795.30	847.00
795.54	830.00
795.79	866.00
796.04	828.00
796.29	853.00
796.54	874.00
796.79	878.00
797.04	843.00
797.29	868.00
797.54	871.00
797.79	862.00
798.04	834.00
798.29	838.00
798.54	834.00
798.79	854.00
799.04	832.00
799.29	862.00
799.53	857.00
799.78	854.00
800.03	846.00
800.28	829.00
800.53	850.00
800.78	894.00
801.03	852.00
801.28	859.00
801.53	848.00
801.78	876.00
802.03	852.00
802.28	871.00
802.52	881.00
802.77	882.00
803.02	859.00
803.27	862.00
803.52	828.00
803.77	858.00
804.02	866.00
804.27	873.00
804.52	874.00
804.77	879.00
805.02	851.00
805.27	862.00
805.51	863.00
805.76	892.00
806.01	845.00
806.26	840.00
806.51	848.00
806.76	894.00
807.01	871.00
807.26	845.00
807.51	865.00
807.76	833.00
808.00	828.00
808.25	860.00
808.50	857.00
808.75	860.00
809.00	846.00
809.25	845.00
809.50	856.00
809.75	875.00
810.00	856.00
810.24	842.00
810.49	828.00
810.74	850.00
810.99	842.00
811.24	862.00
811.49	874.00
811.74	867.00
811.99	819.00
812.24	854.00
812.48	838.00
812.73	842.00
812.98	827.00
813.23	829.00
813.48	862.00
813.73	849.00
813.98	802.00
814.23	846.00
814.47	846.00
814.72	842.00
814.97	829.00
815.22	857.00
815.47	850.00
815.72	845.00
815.97	824.00
816.22	852.00
816.46	850.00
816.71	867.00
816.96	849.00
817.21	856.00
817.46	857.00
817.71	863.00
817.96	825.00
818.20	839.00
818.45	838.00
818.70	864.00
818.95	827.00
819.20	828.00
819.45	851.00
819.70	860.00
819.94	832.00
820.19	850.00
820.44	856.00
820.69	877.00
820.94	837.00
821.19	866.00
821.44	910.00
821.68	920.00
821.93	866.00
822.18	873.00
822.43	875.00
822.68	882.00
822.93	841.00
823.17	861.00
823.42	866.00
823.67	854.00
823.92	829.00
824.17	836.00
824.42	859.00
824.67	871.00
824.91	825.00
825.16	841.00
825.41	859.00
825.66	865.00
825.91	825.00
826.16	852.00
826.40	856.00
826.65	868.00
826.90	833.00
827.15	860.00
827.40	855.00
827.65	879.00
827.89	805.00
828.14	842.00
828.39	862.00
828.64	855.00
828.89	818.00
829.13	848.00
829.38	848.00
829.63	854.00
829.88	845.00
830.13	845.00
830.38	844.00
830.62	851.00
830.87	836.00
831.12	860.00
831.37	886.00
831.62	906.00
831.86	840.00
832.11	851.00
832.36	833.00
832.61	872.00
832.86	853.00
833.10	861.00
833.35	857.00
833.60	876.00
833.85	839.00
834.10	863.00
834.35	890.00
834.59	885.00
834.84	828.00
835.09	881.00
835.34	850.00
835.59	870.00
835.83	847.00
836.08	860.00
836.33	868.00
836.58	876.00
836.83	845.00
837.07	853.00
837.32	846.00
837.57	859.00
837.82	843.00
838.06	872.00
838.31	875.00
838.56	883.00
838.81	824.00
839.06	857.00
839.30	857.00
839.55	873.00
839.80	830.00
840.05	863.00
840.30	876.00
840.54	876.00
840.79	824.00
841.04	848.00
841.29	858.00
841.53	867.00
841.78	834.00
842.03	836.00
842.28	828.00
842.53	852.00
842.77	854.00
843.02	865.00
843.27	854.00
843.52	862.00
843.76	844.00
844.01	864.00
844.26	824.00
844.51	847.00
844.75	843.00
845.00	842.00
845.25	842.00
845.50	869.00
845.75	847.00
845.99	870.00
846.24	861.00
846.49	888.00
846.74	835.00
846.98	824.00
847.23	830.00
847.48	857.00
847.73	828.00
847.97	853.00
848.22	886.00
848.47	874.00
848.72	833.00
848.96	829.00
849.21	858.00
849.46	842.00
849.71	837.00
849.95	860.00
850.20	857.00
850.45	872.00
850.70	833.00
850.94	848.00
851.19	848.00
851.44	837.00
851.69	809.00
851.93	841.00
852.18	866.00
852.43	864.00
852.68	838.00
852.92	868.00
853.17	888.00
853.42	874.00
853.66	847.00
853.91	873.00
854.16	858.00
854.41	884.00
854.65	826.00
854.90	826.00
855.15	860.00
855.40	872.00
855.64	840.00
855.89	850.00
856.14	846.00
856.39	845.00
856.63	823.00
856.88	841.00
857.13	842.00
857.37	852.00
857.62	833.00
857.87	827.00
858.12	845.00
858.36	880.00
858.61	833.00
858.86	837.00
859.10	857.00
859.35	849.00
859.60	826.00
859.85	825.00
860.09	838.00
860.34	876.00
860.59	844.00
860.83	855.00
861.08	860.00
861.33	878.00
861.58	832.00
861.82	844.00
862.07	853.00
862.32	852.00
862.56	831.00
862.81	844.00
863.06	845.00
863.30	848.00
863.55	848.00
863.80	865.00
864.05	861.00
864.29	852.00
864.54	850.00
864.79	867.00
865.03	869.00
865.28	887.00
865.53	845.00
865.77	837.00
866.02	869.00
866.27	874.00
866.51	858.00
866.76	833.00
867.01	833.00
867.26	848.00
867.50	848.00
867.75	830.00
868.00	869.00
868.24	856.00
868.49	828.00
868.74	852.00
868.98	853.00
869.23	873.00
869.48	852.00
869.72	852.00
869.97	854.00
870.22	882.00
870.46	847.00
870.71	857.00
870.96	849.00
871.20	880.00
871.45	831.00
871.70	858.00
871.94	873.00
872.19	879.00
872.44	860.00
872.68	848.00
872.93	842.00
873.18	864.00
873.42	838.00
873.67	856.00
873.92	888.00
874.16	861.00
874.41	820.00
874.66	841.00
874.90	876.00
875.15	898.00
875.40	868.00
875.64	847.00
875.89	849.00
876.14	860.00
876.38	837.00
876.63	848.00
876.88	862.00
877.12	855.00
877.37	814.00
877.62	853.00
877.86	855.00
878.11	871.00
878.36	826.00
878.60	849.00
878.85	859.00
879.09	867.00
879.34	842.00
879.59	868.00
879.83	896.00
880.08	892.00
880.33	866.00
880.57	867.00
880.82	871.00
881.07	853.00
881.31	843.00
881.56	851.00
881.80	832.00
882.05	850.00
882.30	822.00
882.54	836.00
882.79	884.00
883.04	910.00
883.28	874.00
883.53	844.00
883.77	861.00
884.02	884.00
884.27	844.00
884.51	836.00
884.76	848.00
885.01	881.00
885.25	817.00
885.50	855.00
885.74	847.00
885.99	876.00
886.24	841.00
886.48	851.00
886.73	856.00
886.98	874.00
887.22	848.00
887.47	845.00
887.71	851.00
887.96	868.00
888.21	841.00
888.45	844.00
888.70	844.00
888.94	895.00
889.19	821.00
889.44	848.00
889.68	858.00
889.93	888.00
890.17	856.00
890.42	839.00
890.67	873.00
890.91	942.00
891.16	856.00
891.40	845.00
891.65	837.00
891.90	881.00
892.14	824.00
892.39	849.00
892.63	849.00
892.88	882.00
893.13	845.00
893.37	826.00
893.62	841.00
893.86	873.00
894.11	842.00
894.36	853.00
894.60	834.00
894.85	846.00
895.09	843.00
895.34	873.00
895.59	856.00
895.83	848.00
896.08	827.00
896.32	829.00
896.57	866.00
896.81	857.00
897.06	832.00
897.31	838.00
897.55	849.00
897.80	848.00
898.04	837.00
898.29	845.00
898.53	845.00
898.78	864.00
899.03	856.00
899.27	852.00
899.52	863.00
899.76	876.00
900.01	839.00
900.25	871.00
900.50	867.00
900.75	878.00
900.99	852.00
901.24	907.00
901.48	857.00
901.73	863.00
901.97	834.00
902.22	856.00
902.47	874.00
902.71	872.00
902.96	831.00
903.20	846.00
903.45	873.00
903.69	867.00
903.94	848.00
904.18	827.00
904.43	848.00
904.68	853.00
904.92	824.00
905.17	849.00
905.41	858.00
905.66	870.00
905.90	875.00
906.15	854.00
906.39	862.00
906.64	859.00
906.88	833.00
907.13	830.00
907.38	853.00
907.62	885.00
907.87	840.00
908.11	862.00
908.36	852.00
908.60	871.00
908.85	809.00
909.09	835.00
909.34	856.00
909.58	859.00
909.83	837.00
910.07	856.00
910.32	911.00
910.56	899.00
910.81	827.00
911.06	871.00
911.30	874.00
911.55	846.00
911.79	827.00
912.04	844.00
912.28	850.00
912.53	874.00
912.77	840.00
913.02	843.00
913.26	855.00
913.51	864.00
913.75	838.00
914.00	841.00
914.24	860.00
914.49	871.00
914.73	837.00
914.98	868.00
915.22	875.00
915.47	858.00
915.71	836.00
915.96	848.00
916.20	854.00
916.45	862.00
916.69	849.00
916.94	858.00
917.18	850.00
917.43	862.00
917.67	817.00
917.92	813.00
918.16	872.00
918.41	865.00
918.65	841.00
918.90	829.00
919.14	827.00
919.39	834.00
919.63	819.00
919.88	836.00
920.12	871.00
920.37	871.00
920.61	848.00
920.86	881.00
921.10	880.00
921.35	839.00
921.59	817.00
921.84	844.00
922.08	866.00
922.33	874.00
922.57	828.00
922.82	830.00
923.06	848.00
923.31	872.00
923.55	826.00
923.80	840.00
924.04	833.00
924.29	870.00
924.53	826.00
924.78	835.00
925.02	834.00
925.27	853.00
925.51	836.00
925.76	872.00
926.00	854.00
926.25	845.00
926.49	842.00
926.73	873.00
926.98	860.00
927.22	885.00
927.47	859.00
927.71	852.00
927.96	847.00
928.20	854.00
928.45	849.00
928.69	901.00
928.94	896.00
929.18	866.00
929.43	859.00
929.67	856.00
929.91	853.00
930.16	864.00
930.40	828.00
930.65	832.00
930.89	868.00
931.14	883.00
931.38	838.00
931.63	866.00
931.87	856.00
932.12	867.00
932.36	829.00
932.60	846.00
932.85	857.00
933.09	860.00
933.34	836.00
933.58	872.00
933.83	850.00
934.07	863.00
934.32	856.00
934.56	863.00
934.80	887.00
935.05	894.00
935.29	850.00
935.54	876.00
935.78	874.00
936.03	867.00
936.27	814.00
936.52	846.00
936.76	845.00
937.00	878.00
937.25	850.00
937.49	874.00
937.74	892.00
937.98	884.00
938.23	833.00
938.47	842.00
938.71	851.00
938.96	860.00
939.20	830.00
939.45	841.00
939.69	864.00
939.94	872.00
940.18	814.00
940.42	850.00
940.67	875.00
940.91	862.00
941.16	825.00
941.40	821.00
941.64	849.00
941.89	865.00
942.13	825.00
942.38	859.00
942.62	915.00
942.87	878.00
943.11	852.00
943.35	837.00
943.60	852.00
943.84	897.00
944.09	858.00
944.33	894.00
944.57	895.00
944.82	861.00
945.06	831.00
945.31	848.00
945.55	845.00
945.79	878.00
946.04	841.00
946.28	841.00
946.53	858.00
946.77	869.00
947.01	830.00
947.26	879.00
947.50	858.00
947.75	866.00
947.99	853.00
948.23	866.00
948.48	856.00
948.72	858.00
948.97	830.00
949.21	850.00
949.45	854.00
949.70	886.00
949.94	855.00
950.18	869.00
950.43	854.00
950.67	853.00
950.92	833.00
951.16	834.00
951.40	852.00
951.65	855.00
951.89	862.00
952.13	855.00
952.38	865.00
952.62	872.00
952.87	831.00
953.11	859.00
953.35	876.00
953.60	872.00
953.84	808.00
954.08	817.00
954.33	845.00
954.57	852.00
954.82	835.00
955.06	844.00
955.30	854.00
955.55	859.00
955.79	839.00
956.03	853.00
956.28	856.00
956.52	866.00
956.76	859.00
957.01	861.00
957.25	869.00
957.50	862.00
957.74	843.00
957.98	845.00
958.23	866.00
958.47	868.00
958.71	868.00
958.96	884.00
959.20	890.00
959.44	856.00
959.69	842.00
959.93	856.00
960.17	856.00
960.42	877.00
960.66	848.00
960.90	870.00
961.15	868.00
961.39	857.00
961.64	832.00
961.88	840.00
962.12	862.00
962.37	858.00
962.61	845.00
962.85	826.00
963.10	864.00
963.34	870.00
963.58	837.00
963.83	849.00
964.07	859.00
964.31	863.00
964.56	859.00
964.80	851.00
965.04	850.00
965.29	856.00
965.53	835.00
965.77	843.00
966.02	824.00
966.26	840.00
966.50	824.00
966.74	865.00
966.99	879.00
967.23	870.00
967.47	856.00
967.72	858.00
967.96	847.00
968.20	865.00
968.45	830.00
968.69	825.00
968.93	834.00
969.18	852.00
969.42	850.00
969.66	858.00
969.91	840.00
970.15	877.00
970.39	833.00
970.64	850.00
970.88	846.00
971.12	859.00
971.36	850.00
971.61	846.00
971.85	852.00
972.09	850.00
972.34	823.00
972.58	863.00
972.82	872.00
973.07	881.00
973.31	830.00
973.55	853.00
973.79	877.00
974.04	891.00
974.28	848.00
974.52	850.00
974.77	838.00
975.01	874.00
975.25	858.00
975.50	863.00
975.74	851.00
975.98	863.00
976.22	827.00
976.47	836.00
976.71	856.00
976.95	862.00
977.20	863.00
977.44	859.00
977.68	860.00
977.92	891.00
978.17	841.00
978.41	841.00
978.65	872.00
978.90	873.00
979.14	863.00
979.38	851.00
979.62	863.00
979.87	852.00
980.11	812.00
980.35	849.00
980.59	864.00
980.84	863.00
981.08	838.00
981.32	840.00
981.57	870.00
981.81	875.00
982.05	846.00
982.29	842.00
982.54	842.00
982.78	860.00
983.02	845.00
983.26	842.00
983.51	869.00
983.75	868.00
983.99	823.00
984.23	857.00
984.48	864.00
984.72	880.00
984.96	840.00
985.20	837.00
985.45	906.00
985.69	879.00
985.93	850.00
986.17	874.00
986.42	860.00
986.66	866.00
986.90	817.00
987.14	826.00
987.39	855.00
987.63	837.00
987.87	818.00
988.11	839.00
988.36	860.00
988.60	872.00
988.84	863.00
989.08	838.00
989.33	881.00
989.57	874.00
989.81	814.00
990.05	824.00
990.30	848.00
990.54	852.00
990.78	840.00
991.02	824.00
991.27	860.00
991.51	873.00
991.75	842.00
991.99	862.00
992.23	844.00
992.48	845.00
992.72	829.00
992.96	835.00
993.20	841.00
993.45	860.00
993.69	883.00
993.93	836.00
994.17	850.00
994.41	867.00
994.66	821.00
994.90	855.00
995.14	877.00
995.38	865.00
995.63	836.00
995.87	831.00
996.11	881.00
996.35	868.00
996.59	817.00
996.84	841.00
997.08	857.00
997.32	856.00
997.56	857.00
997.80	832.00
998.05	846.00
998.29	840.00
998.53	824.00
998.77	856.00
999.01	868.00
999.26	855.00
999.50	832.00
999.74	831.00
999.98	856.00
1000.22	869.00
1000.47	820.00
1000.71	841.00
1000.95	862.00
1001.19	869.00
1001.43	857.00
1001.68	861.00
1001.92	843.00
1002.16	844.00
1002.40	828.00
1002.64	833.00
1002.89	861.00
1003.13	870.00
1003.37	848.00
1003.61	839.00
1003.85	875.00
1004.10	850.00
1004.34	823.00
1004.58	830.00
1004.82	856.00
1005.06	863.00
1005.30	841.00
1005.55	829.00
1005.79	849.00
1006.03	853.00
1006.27	838.00
1006.51	846.00
1006.76	858.00
1007.00	878.00
1007.24	849.00
1007.48	865.00
1007.72	872.00
1007.96	862.00
1008.21	858.00
1008.45	861.00
1008.69	854.00
1008.93	865.00
1009.17	842.00
1009.41	876.00
1009.66	886.00
1009.90	855.00
1010.14	827.00
1010.38	852.00
1010.62	881.00
1010.86	882.00
1011.10	845.00
1011.35	838.00
1011.59	853.00
1011.83	840.00
1012.07	824.00
1012.31	840.00
1012.55	863.00
1012.80	882.00
1013.04	866.00
1013.28	857.00
1013.52	853.00
1013.76	874.00
1014.00	813.00
1014.24	829.00
1014.49	862.00
1014.73	901.00
1014.97	872.00
1015.21	849.00
1015.45	884.00
1015.69	878.00
1015.93	854.00
1016.18	853.00
1016.42	881.00
1016.66	877.00
1016.90	844.00
1017.14	837.00
1017.38	848.00
1017.62	845.00
1017.87	840.00
1018.11	845.00
1018.35	858.00
1018.59	874.00
1018.83	824.00
1019.07	840.00
1019.31	871.00
1019.55	861.00
1019.80	831.00
1020.04	850.00
1020.28	861.00
1020.52	850.00
1020.76	820.00
1021.00	814.00
1021.24	851.00
1021.48	846.00
1021.73	836.00
1021.97	856.00
1022.21	865.00
1022.45	882.00
1022.69	848.00
1022.93	831.00
1023.17	875.00
1023.41	899.00
1023.65	841.00
1023.90	886.00
1024.14	882.00
1024.38	852.00
1024.62	826.00
1024.86	858.00
1025.10	872.00
1025.34	854.00
1025.58	832.00
1025.82	827.00
1026.07	874.00
1026.31	870.00
1026.55	836.00
1026.79	834.00
1027.03	860.00
1027.27	866.00
1027.51	825.00
1027.75	819.00
1027.99	828.00
1028.23	878.00
1028.47	866.00
1028.72	858.00
1028.96	870.00
1029.20	874.00
1029.44	862.00
1029.68	853.00
1029.92	850.00
1030.16	873.00
1030.40	821.00
1030.64	837.00
1030.88	841.00
1031.12	830.00
1031.37	816.00
1031.61	840.00
1031.85	854.00
1032.09	877.00
1032.33	841.00
1032.57	898.00
1032.81	858.00
1033.05	866.00
1033.29	837.00
1033.53	822.00
1033.77	888.00
1034.01	900.00
1034.25	858.00
1034.50	857.00
1034.74	864.00
1034.98	882.00
1035.22	855.00
1035.46	874.00
1035.70	890.00
1035.94	893.00
1036.18	852.00
1036.42	841.00
1036.66	840.00
1036.90	852.00
1037.14	838.00
1037.38	839.00
1037.62	866.00
1037.86	850.00
1038.10	836.00
1038.35	841.00
1038.59	878.00
1038.83	881.00
1039.07	853.00
1039.31	864.00
1039.55	845.00
1039.79	854.00
1040.03	811.00
1040.27	814.00
1040.51	862.00
1040.75	888.00
1040.99	842.00
1041.23	854.00
1041.47	849.00
1041.71	895.00
1041.95	855.00
1042.19	859.00
1042.43	889.00
1042.67	879.00
1042.91	844.00
1043.15	840.00
1043.39	871.00
1043.64	853.00
1043.88	849.00
1044.12	866.00
1044.36	902.00
1044.60	869.00
1044.84	852.00
1045.08	860.00
1045.32	850.00
1045.56	872.00
1045.80	841.00
1046.04	828.00
1046.28	870.00
1046.52	860.00
1046.76	819.00
1047.00	833.00
1047.24	874.00
1047.48	855.00
1047.72	848.00
1047.96	843.00
1048.20	871.00
1048.44	859.00
1048.68	834.00
1048.92	853.00
1049.16	863.00
1049.40	864.00
1049.64	840.00
1049.88	861.00
1050.12	864.00
1050.36	884.00
1050.60	869.00
1050.84	861.00
1051.08	851.00
1051.32	841.00
1051.56	849.00
1051.80	851.00
1052.04	852.00
1052.28	878.00
1052.52	837.00
1052.76	825.00
1053.00	858.00
1053.24	862.00
1053.48	837.00
1053.72	849.00
1053.96	850.00
1054.20	874.00
1054.44	848.00
1054.68	862.00
1054.92	875.00
1055.16	835.00
1055.40	842.00
1055.64	856.00
1055.88	876.00
1056.12	908.00
1056.36	820.00
1056.60	831.00
1056.84	878.00
1057.08	857.00
1057.32	830.00
1057.56	818.00
1057.80	841.00
1058.04	880.00
1058.28	823.00
1058.52	837.00
1058.76	874.00
1059.00	875.00
1059.24	825.00
1059.48	829.00
1059.72	873.00
1059.96	857.00
1060.20	847.00
1060.44	860.00
1060.68	888.00
1060.92	869.00
1061.16	816.00
1061.40	833.00
1061.64	856.00
1061.88	844.00
1062.11	827.00
1062.35	821.00
1062.59	841.00
1062.83	875.00
1063.07	827.00
1063.31	817.00
1063.55	849.00
1063.79	869.00
1064.03	844.00
1064.27	826.00
1064.51	851.00
1064.75	855.00
1064.99	841.00
1065.23	851.00
1065.47	833.00
1065.71	866.00
1065.95	837.00
1066.19	856.00
1066.43	889.00
1066.67	887.00
1066.91	858.00
1067.15	845.00
1067.38	852.00
1067.62	869.00
1067.86	831.00
1068.10	860.00
1068.34	906.00
1068.58	892.00
1068.82	843.00
1069.06	802.00
1069.30	852.00
1069.54	867.00
1069.78	864.00
1070.02	844.00
1070.26	877.00
1070.50	893.00
1070.74	840.00
1070.98	853.00
1071.21	877.00
1071.45	875.00
1071.69	838.00
1071.93	849.00
1072.17	855.00
1072.41	874.00
1072.65	876.00
1072.89	870.00
1073.13	853.00
1073.37	853.00
1073.61	818.00
1073.85	840.00
1074.09	835.00
1074.32	851.00
1074.56	845.00
1074.80	915.00
1075.04	1111.00
1075.28	968.00
1075.52	852.00
1075.76	847.00
1076.00	873.00
1076.24	865.00
1076.48	854.00
1076.72	859.00
1076.96	875.00
1077.19	856.00
1077.43	825.00
1077.67	859.00
1077.91	853.00
1078.15	843.00
1078.39	847.00
1078.63	846.00
1078.87	854.00
1079.11	872.00
1079.35	832.00
1079.58	843.00
1079.82	841.00
1080.06	845.00
1080.30	821.00
1080.54	864.00
1080.78	871.00
1081.02	848.00
1081.26	848.00
1081.50	869.00
1081.74	861.00
1081.97	871.00
1082.21	846.00
1082.45	866.00
1082.69	858.00
1082.93	848.00
1083.17	840.00
1083.41	826.00
1083.65	893.00
1083.88	907.00
1084.12	857.00
1084.36	855.00
1084.60	862.00
1084.84	865.00
1085.08	814.00
1085.32	841.00
1085.56	870.00
1085.80	864.00
1086.03	844.00
1086.27	823.00
1086.51	854.00
1086.75	868.00
1086.99	841.00
1087.23	822.00
1087.47	855.00
1087.70	839.00
1087.94	853.00
1088.18	890.00
1088.42	900.00
1088.66	862.00
1088.90	812.00
1089.14	841.00
1089.38	863.00
1089.61	877.00
1089.85	854.00
1090.09	835.00
1090.33	881.00
1090.57	888.00
1090.81	814.00
1091.05	839.00
1091.28	856.00
1091.52	868.00
1091.76	825.00
1092.00	862.00
1092.24	871.00
1092.48	879.00
1092.71	822.00
1092.95	867.00
1093.19	863.00
1093.43	866.00
1093.67	835.00
1093.91	852.00
1094.15	858.00
1094.38	855.00
1094.62	828.00
1094.86	821.00
1095.10	833.00
1095.34	861.00
1095.58	836.00
1095.81	845.00
1096.05	886.00
1096.29	900.00
1096.53	818.00
1096.77	861.00
1097.01	838.00
1097.24	873.00
1097.48	835.00
1097.72	850.00
1097.96	854.00
1098.20	867.00
1098.44	825.00
1098.67	818.00
1098.91	860.00
1099.15	880.00
1099.39	844.00
1099.63	857.00
1099.86	874.00
1100.10	846.00
1100.34	849.00
1100.58	844.00
1100.82	863.00
1101.06	853.00
1101.29	827.00
1101.53	852.00
1101.77	881.00
1102.01	855.00
1102.25	840.00
1102.48	850.00
1102.72	892.00
1102.96	862.00
1103.20	815.00
1103.44	854.00
1103.67	856.00
1103.91	873.00
1104.15	822.00
1104.39	820.00
1104.63	861.00
1104.86	848.00
1105.10	846.00
1105.34	870.00
1105.58	827.00
1105.82	835.00
1106.05	825.00
1106.29	853.00
1106.53	854.00
1106.77	888.00
1107.01	833.00
1107.24	867.00
1107.48	897.00
1107.72	866.00
1107.96	817.00
1108.20	852.00
1108.43	852.00
1108.67	859.00
1108.91	848.00
1109.15	839.00
1109.39	865.00
1109.62	868.00
1109.86	823.00
1110.10	845.00
1110.34	897.00
1110.57	918.00
1110.81	847.00
1111.05	841.00
1111.29	908.00
1111.53	902.00
1111.76	850.00
1112.00	876.00
1112.24	888.00
1112.48	874.00
1112.71	830.00
1112.95	841.00
1113.19	867.00
1113.43	848.00
1113.66	823.00
1113.90	859.00
1114.14	874.00
1114.38	871.00
1114.62	830.00
1114.85	874.00
1115.09	865.00
1115.33	920.00
1115.57	854.00
1115.80	846.00
1116.04	852.00
1116.28	858.00
1116.52	847.00
1116.75	854.00
1116.99	889.00
1117.23	882.00
1117.47	860.00
1117.70	874.00
1117.94	919.00
1118.18	866.00
1118.42	849.00
1118.65	885.00
1118.89	876.00
1119.13	853.00
1119.37	828.00
1119.60	865.00
1119.84	891.00
>>>>>End Processed Spectral Data<<<<<
