SpectraSuite Data File
++++++++++++++++++++++++++++++++++++
Date: Fri Dec 06 14:56:18 CET 2024
User: student
Dark Spectrum Present: No
Reference Spectrum Present: No
Number of Sampled Component Spectra: 1
Spectrometers: HR4C155
Integration Time (usec): 100000 (HR4C155)
Spectra Averaged: 1 (HR4C155)
Boxcar Smoothing: 0 (HR4C155)
Correct for Electrical Dark: No (HR4C155)
Strobe/Lamp Enabled: No (HR4C155)
Correct for Detector Non-linearity: No (HR4C155)
Correct for Stray Light: No (HR4C155)
Number of Pixels in Processed Spectrum: 3648
>>>>>Begin Processed Spectral Data<<<<<
195.39	722.00
195.66	722.00
195.93	722.00
196.20	682.00
196.46	728.00
196.73	833.00
197.00	824.00
197.27	825.00
197.54	868.00
197.81	870.00
198.08	856.00
198.35	871.00
198.61	889.00
198.88	849.00
199.15	849.00
199.42	866.00
199.69	882.00
199.96	860.00
200.23	868.00
200.49	860.00
200.76	900.00
201.03	885.00
201.30	872.00
201.57	923.00
201.84	929.00
202.11	869.00
202.38	897.00
202.64	901.00
202.91	930.00
203.18	859.00
203.45	923.00
203.72	988.00
203.99	910.00
204.25	901.00
204.52	892.00
204.79	932.00
205.06	932.00
205.33	865.00
205.60	885.00
205.87	925.00
206.13	921.00
206.40	880.00
206.67	863.00
206.94	913.00
207.21	928.00
207.48	906.00
207.75	896.00
208.01	919.00
208.28	914.00
208.55	874.00
208.82	890.00
209.09	888.00
209.36	913.00
209.62	901.00
209.89	930.00
210.16	934.00
210.43	922.00
210.70	867.00
210.97	884.00
211.23	926.00
211.50	943.00
211.77	904.00
212.04	894.00
212.31	909.00
212.58	945.00
212.84	898.00
213.11	906.00
213.38	865.00
213.65	895.00
213.92	882.00
214.18	883.00
214.45	937.00
214.72	930.00
214.99	866.00
215.26	880.00
215.53	875.00
215.79	901.00
216.06	907.00
216.33	921.00
216.60	886.00
216.87	924.00
217.13	871.00
217.40	868.00
217.67	900.00
217.94	950.00
218.21	885.00
218.48	937.00
218.74	961.00
219.01	921.00
219.28	862.00
219.55	876.00
219.82	913.00
220.08	931.00
220.35	890.00
220.62	883.00
220.89	939.00
221.16	952.00
221.42	892.00
221.69	899.00
221.96	904.00
222.23	918.00
222.50	913.00
222.76	914.00
223.03	914.00
223.30	909.00
223.57	871.00
223.84	863.00
224.10	864.00
224.37	920.00
224.64	891.00
224.91	891.00
225.18	920.00
225.44	925.00
225.71	897.00
225.98	907.00
226.25	938.00
226.51	935.00
226.78	885.00
227.05	885.00
227.32	905.00
227.59	924.00
227.85	909.00
228.12	900.00
228.39	937.00
228.66	938.00
228.92	933.00
229.19	922.00
229.46	919.00
229.73	892.00
230.00	884.00
230.26	911.00
230.53	921.00
230.80	907.00
231.07	855.00
231.33	867.00
231.60	903.00
231.87	938.00
232.14	890.00
232.41	917.00
232.67	919.00
232.94	926.00
233.21	876.00
233.48	883.00
233.74	919.00
234.01	905.00
234.28	886.00
234.55	893.00
234.81	887.00
235.08	936.00
235.35	896.00
235.62	887.00
235.88	905.00
236.15	918.00
236.42	900.00
236.69	892.00
236.95	916.00
237.22	897.00
237.49	883.00
237.76	882.00
238.02	926.00
238.29	936.00
238.56	890.00
238.83	876.00
239.09	890.00
239.36	925.00
239.63	878.00
239.90	900.00
240.16	948.00
240.43	975.00
240.70	900.00
240.97	911.00
241.23	896.00
241.50	917.00
241.77	889.00
242.04	887.00
242.30	868.00
242.57	900.00
242.84	870.00
243.11	885.00
243.37	872.00
243.64	948.00
243.91	906.00
244.18	883.00
244.44	878.00
244.71	897.00
244.98	886.00
245.24	875.00
245.51	906.00
245.78	947.00
246.05	875.00
246.31	888.00
246.58	926.00
246.85	920.00
247.12	884.00
247.38	910.00
247.65	890.00
247.92	918.00
248.18	891.00
248.45	885.00
248.72	891.00
248.99	892.00
249.25	862.00
249.52	888.00
249.79	918.00
250.05	912.00
250.32	871.00
250.59	883.00
250.86	893.00
251.12	901.00
251.39	881.00
251.66	913.00
251.92	939.00
252.19	956.00
252.46	892.00
252.73	918.00
252.99	932.00
253.26	930.00
253.53	875.00
253.79	912.00
254.06	912.00
254.33	885.00
254.60	860.00
254.86	871.00
255.13	930.00
255.40	935.00
255.66	890.00
255.93	908.00
256.20	913.00
256.46	940.00
256.73	888.00
257.00	910.00
257.26	912.00
257.53	923.00
257.80	903.00
258.07	920.00
258.33	957.00
258.60	929.00
258.87	868.00
259.13	900.00
259.40	906.00
259.67	938.00
259.93	900.00
260.20	915.00
260.47	916.00
260.73	902.00
261.00	887.00
261.27	913.00
261.53	925.00
261.80	907.00
262.07	865.00
262.34	890.00
262.60	870.00
262.87	890.00
263.14	879.00
263.40	912.00
263.67	910.00
263.94	910.00
264.20	885.00
264.47	868.00
264.74	877.00
265.00	888.00
265.27	867.00
265.54	884.00
265.80	926.00
266.07	941.00
266.34	868.00
266.60	886.00
266.87	905.00
267.14	921.00
267.40	869.00
267.67	854.00
267.94	903.00
268.20	891.00
268.47	862.00
268.74	871.00
269.00	900.00
269.27	883.00
269.54	839.00
269.80	849.00
270.07	913.00
270.33	893.00
270.60	889.00
270.87	901.00
271.13	908.00
271.40	924.00
271.67	845.00
271.93	849.00
272.20	887.00
272.47	893.00
272.73	844.00
273.00	890.00
273.27	877.00
273.53	918.00
273.80	889.00
274.07	868.00
274.33	886.00
274.60	934.00
274.86	900.00
275.13	899.00
275.40	902.00
275.66	943.00
275.93	907.00
276.20	883.00
276.46	902.00
276.73	890.00
277.00	885.00
277.26	902.00
277.53	894.00
277.79	894.00
278.06	873.00
278.33	934.00
278.59	939.00
278.86	886.00
279.13	858.00
279.39	893.00
279.66	927.00
279.93	935.00
280.19	901.00
280.46	868.00
280.72	869.00
280.99	910.00
281.26	866.00
281.52	882.00
281.79	904.00
282.05	911.00
282.32	894.00
282.59	880.00
282.85	923.00
283.12	923.00
283.39	897.00
283.65	895.00
283.92	896.00
284.18	910.00
284.45	896.00
284.72	890.00
284.98	897.00
285.25	893.00
285.51	901.00
285.78	891.00
286.05	889.00
286.31	898.00
286.58	864.00
286.84	869.00
287.11	875.00
287.38	908.00
287.64	899.00
287.91	866.00
288.17	911.00
288.44	907.00
288.71	846.00
288.97	876.00
289.24	921.00
289.50	906.00
289.77	898.00
290.04	857.00
290.30	868.00
290.57	908.00
290.83	875.00
291.10	868.00
291.37	907.00
291.63	882.00
291.90	900.00
292.16	899.00
292.43	914.00
292.70	904.00
292.96	853.00
293.23	869.00
293.49	886.00
293.76	896.00
294.02	875.00
294.29	873.00
294.56	906.00
294.82	910.00
295.09	882.00
295.35	878.00
295.62	916.00
295.89	926.00
296.15	863.00
296.42	873.00
296.68	889.00
296.95	895.00
297.21	892.00
297.48	886.00
297.75	906.00
298.01	939.00
298.28	889.00
298.54	916.00
298.81	890.00
299.07	893.00
299.34	849.00
299.61	885.00
299.87	915.00
300.14	892.00
300.40	897.00
300.67	890.00
300.93	897.00
301.20	936.00
301.46	887.00
301.73	892.00
302.00	915.00
302.26	900.00
302.53	898.00
302.79	894.00
303.06	897.00
303.32	941.00
303.59	870.00
303.85	874.00
304.12	883.00
304.39	895.00
304.65	872.00
304.92	887.00
305.18	900.00
305.45	902.00
305.71	875.00
305.98	888.00
306.24	887.00
306.51	894.00
306.77	860.00
307.04	889.00
307.31	920.00
307.57	935.00
307.84	869.00
308.10	881.00
308.37	874.00
308.63	878.00
308.90	864.00
309.16	885.00
309.43	916.00
309.69	895.00
309.96	878.00
310.22	878.00
310.49	905.00
310.76	912.00
311.02	857.00
311.29	882.00
311.55	897.00
311.82	901.00
312.08	878.00
312.35	884.00
312.61	895.00
312.88	910.00
313.14	882.00
313.41	869.00
313.67	873.00
313.94	900.00
314.20	889.00
314.47	902.00
314.73	881.00
315.00	881.00
315.26	884.00
315.53	919.00
315.79	922.00
316.06	901.00
316.32	862.00
316.59	880.00
316.85	906.00
317.12	910.00
317.39	859.00
317.65	888.00
317.92	898.00
318.18	913.00
318.45	876.00
318.71	910.00
318.98	934.00
319.24	914.00
319.51	870.00
319.77	886.00
320.04	891.00
320.30	886.00
320.57	870.00
320.83	857.00
321.10	862.00
321.36	892.00
321.63	858.00
321.89	858.00
322.16	917.00
322.42	913.00
322.69	874.00
322.95	882.00
323.22	891.00
323.48	918.00
323.75	869.00
324.01	905.00
324.28	887.00
324.54	915.00
324.80	886.00
325.07	912.00
325.33	918.00
325.60	890.00
325.86	857.00
326.13	864.00
326.39	876.00
326.66	881.00
326.92	852.00
327.19	886.00
327.45	929.00
327.72	934.00
327.98	878.00
328.25	854.00
328.51	886.00
328.78	884.00
329.04	856.00
329.31	905.00
329.57	906.00
329.84	895.00
330.10	882.00
330.37	876.00
330.63	902.00
330.89	924.00
331.16	880.00
331.42	876.00
331.69	923.00
331.95	891.00
332.22	861.00
332.48	908.00
332.75	901.00
333.01	874.00
333.28	857.00
333.54	877.00
333.81	894.00
334.07	915.00
334.34	877.00
334.60	907.00
334.86	943.00
335.13	938.00
335.39	873.00
335.66	876.00
335.92	915.00
336.19	912.00
336.45	855.00
336.72	878.00
336.98	878.00
337.24	897.00
337.51	863.00
337.77	889.00
338.04	893.00
338.30	891.00
338.57	850.00
338.83	877.00
339.10	909.00
339.36	915.00
339.63	877.00
339.89	857.00
340.15	889.00
340.42	914.00
340.68	895.00
340.95	912.00
341.21	904.00
341.48	903.00
341.74	854.00
342.00	857.00
342.27	902.00
342.53	904.00
342.80	864.00
343.06	872.00
343.33	901.00
343.59	917.00
343.85	870.00
344.12	882.00
344.38	940.00
344.65	945.00
344.91	888.00
345.18	875.00
345.44	886.00
345.70	884.00
345.97	838.00
346.23	866.00
346.50	915.00
346.76	905.00
347.03	886.00
347.29	881.00
347.55	891.00
347.82	880.00
348.08	850.00
348.35	862.00
348.61	923.00
348.87	905.00
349.14	854.00
349.40	851.00
349.67	900.00
349.93	887.00
350.20	861.00
350.46	883.00
350.72	922.00
350.99	910.00
351.25	896.00
351.52	887.00
351.78	882.00
352.04	895.00
352.31	878.00
352.57	875.00
352.84	880.00
353.10	873.00
353.36	871.00
353.63	870.00
353.89	877.00
354.16	909.00
354.42	891.00
354.68	901.00
354.95	914.00
355.21	899.00
355.48	862.00
355.74	906.00
356.00	922.00
356.27	924.00
356.53	861.00
356.80	870.00
357.06	904.00
357.32	934.00
357.59	889.00
357.85	893.00
358.11	925.00
358.38	917.00
358.64	877.00
358.91	880.00
359.17	883.00
359.43	908.00
359.70	897.00
359.96	881.00
360.22	905.00
360.49	892.00
360.75	885.00
361.02	848.00
361.28	868.00
361.54	890.00
361.81	861.00
362.07	870.00
362.33	874.00
362.60	876.00
362.86	860.00
363.13	897.00
363.39	916.00
363.65	910.00
363.92	847.00
364.18	853.00
364.44	874.00
364.71	893.00
364.97	871.00
365.24	877.00
365.50	903.00
365.76	927.00
366.03	879.00
366.29	888.00
366.55	900.00
366.82	886.00
367.08	856.00
367.34	893.00
367.61	914.00
367.87	903.00
368.13	884.00
368.40	869.00
368.66	930.00
368.93	921.00
369.19	848.00
369.45	858.00
369.72	907.00
369.98	890.00
370.24	867.00
370.51	877.00
370.77	885.00
371.03	885.00
371.30	877.00
371.56	907.00
371.82	908.00
372.09	902.00
372.35	897.00
372.61	907.00
372.88	901.00
373.14	893.00
373.40	891.00
373.67	876.00
373.93	904.00
374.19	925.00
374.46	860.00
374.72	861.00
374.98	899.00
375.25	894.00
375.51	886.00
375.77	902.00
376.04	912.00
376.30	905.00
376.56	840.00
376.83	867.00
377.09	901.00
377.35	890.00
377.62	872.00
377.88	881.00
378.14	880.00
378.41	907.00
378.67	885.00
378.93	880.00
379.20	916.00
379.46	904.00
379.72	874.00
379.99	878.00
380.25	878.00
380.51	857.00
380.77	862.00
381.04	881.00
381.30	906.00
381.56	916.00
381.83	893.00
382.09	885.00
382.35	891.00
382.62	923.00
382.88	894.00
383.14	872.00
383.41	891.00
383.67	879.00
383.93	897.00
384.20	884.00
384.46	910.00
384.72	926.00
384.98	862.00
385.25	900.00
385.51	913.00
385.77	897.00
386.04	870.00
386.30	872.00
386.56	896.00
386.82	932.00
387.09	869.00
387.35	901.00
387.61	959.00
387.88	919.00
388.14	883.00
388.40	881.00
388.67	887.00
388.93	886.00
389.19	877.00
389.45	870.00
389.72	870.00
389.98	918.00
390.24	880.00
390.51	866.00
390.77	908.00
391.03	920.00
391.29	851.00
391.56	873.00
391.82	918.00
392.08	936.00
392.35	887.00
392.61	881.00
392.87	892.00
393.13	912.00
393.40	867.00
393.66	877.00
393.92	902.00
394.18	905.00
394.45	856.00
394.71	861.00
394.97	877.00
395.24	880.00
395.50	859.00
395.76	885.00
396.02	900.00
396.29	906.00
396.55	854.00
396.81	826.00
397.07	886.00
397.34	864.00
397.60	852.00
397.86	846.00
398.12	864.00
398.39	908.00
398.65	854.00
398.91	872.00
399.17	893.00
399.44	860.00
399.70	839.00
399.96	837.00
400.22	859.00
400.49	905.00
400.75	877.00
401.01	869.00
401.27	871.00
401.54	913.00
401.80	876.00
402.06	866.00
402.32	921.00
402.59	898.00
402.85	868.00
403.11	863.00
403.37	869.00
403.64	915.00
403.90	860.00
404.16	861.00
404.42	879.00
404.69	866.00
404.95	869.00
405.21	857.00
405.47	886.00
405.74	922.00
406.00	863.00
406.26	870.00
406.52	906.00
406.79	918.00
407.05	871.00
407.31	885.00
407.57	883.00
407.83	898.00
408.10	851.00
408.36	857.00
408.62	882.00
408.88	890.00
409.15	857.00
409.41	850.00
409.67	876.00
409.93	900.00
410.20	883.00
410.46	869.00
410.72	881.00
410.98	882.00
411.24	858.00
411.51	865.00
411.77	877.00
412.03	892.00
412.29	885.00
412.55	914.00
412.82	895.00
413.08	897.00
413.34	891.00
413.60	864.00
413.87	885.00
414.13	888.00
414.39	859.00
414.65	872.00
414.91	895.00
415.18	880.00
415.44	845.00
415.70	852.00
415.96	871.00
416.22	871.00
416.49	850.00
416.75	879.00
417.01	885.00
417.27	891.00
417.53	876.00
417.80	888.00
418.06	906.00
418.32	904.00
418.58	852.00
418.84	866.00
419.11	899.00
419.37	894.00
419.63	864.00
419.89	873.00
420.15	895.00
420.42	914.00
420.68	860.00
420.94	879.00
421.20	876.00
421.46	911.00
421.72	881.00
421.99	867.00
422.25	896.00
422.51	913.00
422.77	897.00
423.03	894.00
423.30	899.00
423.56	923.00
423.82	910.00
424.08	900.00
424.34	902.00
424.60	899.00
424.87	872.00
425.13	864.00
425.39	879.00
425.65	874.00
425.91	856.00
426.18	891.00
426.44	901.00
426.70	876.00
426.96	841.00
427.22	842.00
427.48	868.00
427.75	869.00
428.01	848.00
428.27	875.00
428.53	920.00
428.79	872.00
429.05	855.00
429.32	876.00
429.58	912.00
429.84	877.00
430.10	894.00
430.36	890.00
430.62	908.00
430.88	911.00
431.15	881.00
431.41	894.00
431.67	894.00
431.93	875.00
432.19	844.00
432.45	879.00
432.72	889.00
432.98	889.00
433.24	921.00
433.50	998.00
433.76	908.00
434.02	878.00
434.28	845.00
434.55	881.00
434.81	909.00
435.07	903.00
435.33	858.00
435.59	856.00
435.85	870.00
436.11	901.00
436.38	852.00
436.64	855.00
436.90	886.00
437.16	887.00
437.42	854.00
437.68	860.00
437.94	888.00
438.21	923.00
438.47	893.00
438.73	880.00
438.99	883.00
439.25	911.00
439.51	870.00
439.77	890.00
440.03	875.00
440.30	906.00
440.56	891.00
440.82	891.00
441.08	904.00
441.34	897.00
441.60	841.00
441.86	870.00
442.12	886.00
442.39	885.00
442.65	853.00
442.91	868.00
443.17	873.00
443.43	869.00
443.69	878.00
443.95	851.00
444.21	889.00
444.47	918.00
444.74	861.00
445.00	878.00
445.26	868.00
445.52	879.00
445.78	841.00
446.04	882.00
446.30	924.00
446.56	911.00
446.82	851.00
447.09	875.00
447.35	896.00
447.61	916.00
447.87	882.00
448.13	872.00
448.39	916.00
448.65	900.00
448.91	846.00
449.17	868.00
449.43	868.00
449.70	880.00
449.96	855.00
450.22	858.00
450.48	894.00
450.74	906.00
451.00	863.00
451.26	875.00
451.52	883.00
451.78	875.00
452.04	862.00
452.31	892.00
452.57	884.00
452.83	869.00
453.09	864.00
453.35	869.00
453.61	898.00
453.87	894.00
454.13	899.00
454.39	883.00
454.65	926.00
454.91	917.00
455.17	850.00
455.44	878.00
455.70	900.00
455.96	904.00
456.22	863.00
456.48	853.00
456.74	882.00
457.00	871.00
457.26	826.00
457.52	861.00
457.78	870.00
458.04	890.00
458.30	844.00
458.56	858.00
458.82	860.00
459.09	860.00
459.35	820.00
459.61	844.00
459.87	893.00
460.13	912.00
460.39	878.00
460.65	851.00
460.91	894.00
461.17	880.00
461.43	847.00
461.69	866.00
461.95	897.00
462.21	888.00
462.47	879.00
462.73	910.00
462.99	900.00
463.26	893.00
463.52	854.00
463.78	851.00
464.04	858.00
464.30	883.00
464.56	860.00
464.82	866.00
465.08	914.00
465.34	933.00
465.60	886.00
465.86	875.00
466.12	875.00
466.38	871.00
466.64	866.00
466.90	874.00
467.16	883.00
467.42	898.00
467.68	849.00
467.94	888.00
468.20	930.00
468.46	892.00
468.72	870.00
468.98	887.00
469.25	888.00
469.51	851.00
469.77	873.00
470.03	880.00
470.29	888.00
470.55	904.00
470.81	871.00
471.07	890.00
471.33	897.00
471.59	909.00
471.85	878.00
472.11	891.00
472.37	901.00
472.63	882.00
472.89	887.00
473.15	866.00
473.41	887.00
473.67	892.00
473.93	841.00
474.19	852.00
474.45	858.00
474.71	871.00
474.97	853.00
475.23	862.00
475.49	866.00
475.75	865.00
476.01	876.00
476.27	884.00
476.53	906.00
476.79	906.00
477.05	893.00
477.31	870.00
477.57	880.00
477.83	885.00
478.09	847.00
478.35	878.00
478.61	912.00
478.87	889.00
479.13	835.00
479.39	885.00
479.65	891.00
479.91	894.00
480.17	877.00
480.43	908.00
480.69	886.00
480.95	885.00
481.21	866.00
481.47	871.00
481.73	884.00
481.99	883.00
482.25	836.00
482.51	842.00
482.77	904.00
483.03	883.00
483.29	877.00
483.55	879.00
483.81	907.00
484.07	913.00
484.33	862.00
484.59	862.00
484.85	892.00
485.11	899.00
485.37	871.00
485.63	861.00
485.89	872.00
486.15	881.00
486.41	861.00
486.67	870.00
486.93	884.00
487.19	885.00
487.45	865.00
487.71	865.00
487.97	905.00
488.23	895.00
488.49	859.00
488.75	845.00
489.01	888.00
489.27	917.00
489.53	865.00
489.79	863.00
490.05	883.00
490.31	898.00
490.57	891.00
490.83	915.00
491.08	874.00
491.34	865.00
491.60	856.00
491.86	867.00
492.12	918.00
492.38	915.00
492.64	877.00
492.90	859.00
493.16	897.00
493.42	875.00
493.68	850.00
493.94	877.00
494.20	882.00
494.46	877.00
494.72	850.00
494.98	873.00
495.24	861.00
495.50	874.00
495.76	875.00
496.02	895.00
496.28	887.00
496.54	898.00
496.80	870.00
497.05	847.00
497.31	901.00
497.57	890.00
497.83	873.00
498.09	897.00
498.35	922.00
498.61	893.00
498.87	868.00
499.13	878.00
499.39	882.00
499.65	877.00
499.91	864.00
500.17	852.00
500.43	946.00
500.69	960.00
500.95	854.00
501.20	890.00
501.46	900.00
501.72	898.00
501.98	884.00
502.24	894.00
502.50	915.00
502.76	883.00
503.02	856.00
503.28	870.00
503.54	939.00
503.80	934.00
504.06	896.00
504.32	913.00
504.58	905.00
504.83	882.00
505.09	860.00
505.35	879.00
505.61	861.00
505.87	871.00
506.13	864.00
506.39	869.00
506.65	900.00
506.91	918.00
507.17	866.00
507.43	858.00
507.68	872.00
507.94	911.00
508.20	856.00
508.46	839.00
508.72	907.00
508.98	896.00
509.24	849.00
509.50	865.00
509.76	865.00
510.02	875.00
510.28	838.00
510.53	844.00
510.79	888.00
511.05	891.00
511.31	855.00
511.57	868.00
511.83	884.00
512.09	904.00
512.35	887.00
512.61	876.00
512.87	878.00
513.12	889.00
513.38	847.00
513.64	884.00
513.90	899.00
514.16	924.00
514.42	878.00
514.68	884.00
514.94	904.00
515.20	882.00
515.45	849.00
515.71	863.00
515.97	868.00
516.23	877.00
516.49	847.00
516.75	862.00
517.01	878.00
517.27	868.00
517.53	851.00
517.78	855.00
518.04	881.00
518.30	877.00
518.56	840.00
518.82	885.00
519.08	910.00
519.34	876.00
519.60	858.00
519.85	891.00
520.11	877.00
520.37	877.00
520.63	866.00
520.89	869.00
521.15	872.00
521.41	871.00
521.66	863.00
521.92	860.00
522.18	897.00
522.44	900.00
522.70	870.00
522.96	841.00
523.22	898.00
523.48	901.00
523.73	865.00
523.99	853.00
524.25	913.00
524.51	908.00
524.77	866.00
525.03	859.00
525.29	886.00
525.54	896.00
525.80	871.00
526.06	871.00
526.32	868.00
526.58	888.00
526.84	867.00
527.09	859.00
527.35	867.00
527.61	866.00
527.87	852.00
528.13	879.00
528.39	867.00
528.65	880.00
528.90	835.00
529.16	842.00
529.42	860.00
529.68	885.00
529.94	860.00
530.20	883.00
530.45	870.00
530.71	881.00
530.97	853.00
531.23	870.00
531.49	891.00
531.75	880.00
532.00	862.00
532.26	846.00
532.52	906.00
532.78	881.00
533.04	847.00
533.30	853.00
533.55	882.00
533.81	880.00
534.07	851.00
534.33	861.00
534.59	874.00
534.85	881.00
535.10	842.00
535.36	840.00
535.62	880.00
535.88	869.00
536.14	855.00
536.39	848.00
536.65	897.00
536.91	916.00
537.17	857.00
537.43	856.00
537.69	913.00
537.94	899.00
538.20	842.00
538.46	863.00
538.72	894.00
538.98	886.00
539.23	848.00
539.49	836.00
539.75	898.00
540.01	890.00
540.27	852.00
540.52	899.00
540.78	880.00
541.04	901.00
541.30	847.00
541.56	848.00
541.81	917.00
542.07	952.00
542.33	872.00
542.59	863.00
542.85	890.00
543.10	881.00
543.36	853.00
543.62	886.00
543.88	896.00
544.14	882.00
544.39	856.00
544.65	870.00
544.91	907.00
545.17	907.00
545.43	878.00
545.68	860.00
545.94	884.00
546.20	894.00
546.46	863.00
546.71	881.00
546.97	895.00
547.23	893.00
547.49	873.00
547.75	857.00
548.00	880.00
548.26	904.00
548.52	853.00
548.78	853.00
549.03	887.00
549.29	874.00
549.55	836.00
549.81	872.00
550.07	886.00
550.32	885.00
550.58	837.00
550.84	872.00
551.10	885.00
551.35	882.00
551.61	853.00
551.87	877.00
552.13	884.00
552.39	863.00
552.64	841.00
552.90	853.00
553.16	886.00
553.42	883.00
553.67	846.00
553.93	867.00
554.19	909.00
554.45	907.00
554.70	874.00
554.96	856.00
555.22	884.00
555.48	903.00
555.73	873.00
555.99	859.00
556.25	887.00
556.51	883.00
556.76	852.00
557.02	879.00
557.28	903.00
557.54	854.00
557.79	836.00
558.05	890.00
558.31	881.00
558.57	898.00
558.82	841.00
559.08	828.00
559.34	843.00
559.60	888.00
559.85	853.00
560.11	884.00
560.37	870.00
560.63	857.00
560.88	852.00
561.14	876.00
561.40	898.00
561.66	858.00
561.91	862.00
562.17	876.00
562.43	892.00
562.68	898.00
562.94	868.00
563.20	888.00
563.46	907.00
563.71	903.00
563.97	854.00
564.23	883.00
564.49	913.00
564.74	900.00
565.00	866.00
565.26	856.00
565.51	881.00
565.77	857.00
566.03	842.00
566.29	866.00
566.54	870.00
566.80	878.00
567.06	853.00
567.31	902.00
567.57	917.00
567.83	870.00
568.09	867.00
568.34	863.00
568.60	881.00
568.86	901.00
569.11	876.00
569.37	848.00
569.63	879.00
569.89	891.00
570.14	824.00
570.40	850.00
570.66	873.00
570.91	863.00
571.17	866.00
571.43	900.00
571.69	916.00
571.94	916.00
572.20	841.00
572.46	851.00
572.71	900.00
572.97	879.00
573.23	847.00
573.48	856.00
573.74	874.00
574.00	893.00
574.26	863.00
574.51	876.00
574.77	914.00
575.03	893.00
575.28	865.00
575.54	858.00
575.80	855.00
576.05	862.00
576.31	840.00
576.57	849.00
576.82	882.00
577.08	886.00
577.34	858.00
577.59	875.00
577.85	892.00
578.11	867.00
578.37	858.00
578.62	858.00
578.88	891.00
579.14	891.00
579.39	877.00
579.65	870.00
579.91	881.00
580.16	878.00
580.42	872.00
580.68	871.00
580.93	878.00
581.19	858.00
581.45	852.00
581.70	874.00
581.96	884.00
582.22	903.00
582.47	868.00
582.73	876.00
582.99	909.00
583.24	900.00
583.50	838.00
583.76	868.00
584.01	877.00
584.27	893.00
584.53	862.00
584.78	869.00
585.04	851.00
585.30	890.00
585.55	885.00
585.81	868.00
586.07	903.00
586.32	901.00
586.58	866.00
586.83	854.00
587.09	873.00
587.35	886.00
587.60	837.00
587.86	848.00
588.12	886.00
588.37	890.00
588.63	872.00
588.89	885.00
589.14	891.00
589.40	882.00
589.66	863.00
589.91	872.00
590.17	878.00
590.43	857.00
590.68	852.00
590.94	862.00
591.19	907.00
591.45	894.00
591.71	845.00
591.96	853.00
592.22	884.00
592.48	894.00
592.73	841.00
592.99	858.00
593.25	899.00
593.50	894.00
593.76	866.00
594.01	883.00
594.27	906.00
594.53	886.00
594.78	854.00
595.04	884.00
595.30	900.00
595.55	897.00
595.81	861.00
596.06	891.00
596.32	928.00
596.58	906.00
596.83	866.00
597.09	893.00
597.35	897.00
597.60	879.00
597.86	844.00
598.11	868.00
598.37	908.00
598.63	901.00
598.88	852.00
599.14	859.00
599.39	888.00
599.65	896.00
599.91	832.00
600.16	853.00
600.42	887.00
600.67	919.00
600.93	855.00
601.19	870.00
601.44	926.00
601.70	910.00
601.95	879.00
602.21	902.00
602.47	884.00
602.72	889.00
602.98	867.00
603.23	875.00
603.49	896.00
603.75	920.00
604.00	882.00
604.26	871.00
604.51	880.00
604.77	915.00
605.03	869.00
605.28	871.00
605.54	926.00
605.79	947.00
606.05	848.00
606.31	866.00
606.56	909.00
606.82	922.00
607.07	897.00
607.33	917.00
607.59	916.00
607.84	908.00
608.10	868.00
608.35	899.00
608.61	906.00
608.86	921.00
609.12	896.00
609.38	912.00
609.63	943.00
609.89	919.00
610.14	870.00
610.40	897.00
610.65	912.00
610.91	924.00
611.17	898.00
611.42	899.00
611.68	951.00
611.93	960.00
612.19	937.00
612.44	933.00
612.70	922.00
612.96	896.00
613.21	889.00
613.47	883.00
613.72	912.00
613.98	952.00
614.23	923.00
614.49	931.00
614.75	947.00
615.00	935.00
615.26	925.00
615.51	909.00
615.77	931.00
616.02	967.00
616.28	933.00
616.53	943.00
616.79	949.00
617.05	937.00
617.30	925.00
617.56	955.00
617.81	976.00
618.07	989.00
618.32	965.00
618.58	993.00
618.83	1012.00
619.09	1020.00
619.34	965.00
619.60	966.00
619.86	989.00
620.11	1001.00
620.37	964.00
620.62	987.00
620.88	1004.00
621.13	1022.00
621.39	986.00
621.64	1015.00
621.90	1033.00
622.15	1008.00
622.41	997.00
622.66	1025.00
622.92	1051.00
623.18	1080.00
623.43	1034.00
623.69	1045.00
623.94	1059.00
624.20	1101.00
624.45	1095.00
624.71	1112.00
624.96	1118.00
625.22	1147.00
625.47	1102.00
625.73	1110.00
625.98	1119.00
626.24	1105.00
626.49	1090.00
626.75	1136.00
627.00	1187.00
627.26	1194.00
627.51	1198.00
627.77	1225.00
628.02	1250.00
628.28	1228.00
628.53	1185.00
628.79	1262.00
629.05	1302.00
629.30	1280.00
629.56	1256.00
629.81	1277.00
630.07	1314.00
630.32	1351.00
630.58	1352.00
630.83	1369.00
631.09	1401.00
631.34	1411.00
631.60	1392.00
631.85	1445.00
632.11	1538.00
632.36	1513.00
632.62	1530.00
632.87	1637.00
633.13	1623.00
633.38	1546.00
633.64	1538.00
633.89	1610.00
634.15	1618.00
634.40	1654.00
634.66	1711.00
634.91	1811.00
635.17	1854.00
635.42	1914.00
635.68	1874.00
635.93	1819.00
636.18	1799.00
636.44	1853.00
636.69	1909.00
636.95	1967.00
637.20	2001.00
637.46	1960.00
637.71	1961.00
637.97	1941.00
638.22	1840.00
638.48	1853.00
638.73	1840.00
638.99	1853.00
639.24	1922.00
639.50	1899.00
639.75	1925.00
640.01	1994.00
640.26	2044.00
640.52	2022.00
640.77	1976.00
641.03	2015.00
641.28	2003.00
641.54	2041.00
641.79	2070.00
642.04	2061.00
642.30	1996.00
642.55	1938.00
642.81	1884.00
643.06	1790.00
643.32	1833.00
643.57	1834.00
643.83	1778.00
644.08	1712.00
644.34	1699.00
644.59	1664.00
644.85	1659.00
645.10	1683.00
645.35	1673.00
645.61	1589.00
645.86	1554.00
646.12	1605.00
646.37	1635.00
646.63	1579.00
646.88	1527.00
647.14	1499.00
647.39	1435.00
647.65	1439.00
647.90	1398.00
648.15	1410.00
648.41	1374.00
648.66	1363.00
648.92	1346.00
649.17	1308.00
649.43	1244.00
649.68	1223.00
649.94	1202.00
650.19	1168.00
650.44	1208.00
650.70	1224.00
650.95	1164.00
651.21	1195.00
651.46	1168.00
651.72	1138.00
651.97	1097.00
652.23	1072.00
652.48	1088.00
652.73	1106.00
652.99	1068.00
653.24	1055.00
653.50	1052.00
653.75	1030.00
654.01	1015.00
654.26	1010.00
654.51	1016.00
654.77	1019.00
655.02	980.00
655.28	973.00
655.53	981.00
655.79	1001.00
656.04	980.00
656.29	992.00
656.55	979.00
656.80	962.00
657.06	914.00
657.31	930.00
657.56	945.00
657.82	944.00
658.07	928.00
658.33	932.00
658.58	940.00
658.84	971.00
659.09	911.00
659.34	913.00
659.60	919.00
659.85	909.00
660.11	894.00
660.36	910.00
660.61	917.00
660.87	883.00
661.12	874.00
661.38	907.00
661.63	922.00
661.88	929.00
662.14	918.00
662.39	909.00
662.65	934.00
662.90	954.00
663.15	887.00
663.41	902.00
663.66	936.00
663.92	924.00
664.17	880.00
664.42	892.00
664.68	898.00
664.93	890.00
665.19	862.00
665.44	854.00
665.69	874.00
665.95	908.00
666.20	862.00
666.45	912.00
666.71	912.00
666.96	892.00
667.22	850.00
667.47	868.00
667.72	874.00
667.98	893.00
668.23	866.00
668.49	878.00
668.74	905.00
668.99	906.00
669.25	874.00
669.50	870.00
669.75	885.00
670.01	915.00
670.26	854.00
670.52	882.00
670.77	907.00
671.02	880.00
671.28	862.00
671.53	874.00
671.78	905.00
672.04	907.00
672.29	879.00
672.54	869.00
672.80	886.00
673.05	891.00
673.31	847.00
673.56	895.00
673.81	923.00
674.07	908.00
674.32	885.00
674.57	870.00
674.83	883.00
675.08	886.00
675.33	856.00
675.59	860.00
675.84	888.00
676.09	875.00
676.35	876.00
676.60	888.00
676.86	905.00
677.11	929.00
677.36	865.00
677.62	880.00
677.87	930.00
678.12	937.00
678.38	854.00
678.63	862.00
678.88	893.00
679.14	905.00
679.39	844.00
679.64	880.00
679.90	883.00
680.15	903.00
680.40	880.00
680.66	864.00
680.91	896.00
681.16	889.00
681.42	863.00
681.67	873.00
681.92	897.00
682.18	922.00
682.43	857.00
682.68	850.00
682.94	882.00
683.19	873.00
683.44	857.00
683.70	880.00
683.95	877.00
684.20	886.00
684.46	881.00
684.71	884.00
684.96	870.00
685.22	888.00
685.47	865.00
685.72	877.00
685.98	876.00
686.23	855.00
686.48	838.00
686.74	883.00
686.99	909.00
687.24	896.00
687.50	857.00
687.75	864.00
688.00	873.00
688.25	897.00
688.51	879.00
688.76	891.00
689.01	864.00
689.27	860.00
689.52	841.00
689.77	874.00
690.03	848.00
690.28	862.00
690.53	861.00
690.79	893.00
691.04	898.00
691.29	885.00
691.54	832.00
691.80	867.00
692.05	870.00
692.30	886.00
692.56	862.00
692.81	869.00
693.06	855.00
693.32	852.00
693.57	844.00
693.82	873.00
694.07	869.00
694.33	875.00
694.58	848.00
694.83	885.00
695.09	865.00
695.34	900.00
695.59	867.00
695.84	868.00
696.10	889.00
696.35	883.00
696.60	844.00
696.86	867.00
697.11	885.00
697.36	878.00
697.61	838.00
697.87	862.00
698.12	873.00
698.37	873.00
698.63	861.00
698.88	861.00
699.13	875.00
699.38	870.00
699.64	839.00
699.89	853.00
700.14	853.00
700.39	870.00
700.65	869.00
700.90	894.00
701.15	870.00
701.40	883.00
701.66	854.00
701.91	862.00
702.16	871.00
702.42	864.00
702.67	834.00
702.92	859.00
703.17	874.00
703.43	868.00
703.68	843.00
703.93	893.00
704.18	915.00
704.44	887.00
704.69	870.00
704.94	883.00
705.19	875.00
705.45	888.00
705.70	871.00
705.95	849.00
706.20	870.00
706.46	897.00
706.71	865.00
706.96	860.00
707.21	867.00
707.47	868.00
707.72	859.00
707.97	875.00
708.22	899.00
708.48	903.00
708.73	863.00
708.98	857.00
709.23	866.00
709.49	872.00
709.74	852.00
709.99	857.00
710.24	875.00
710.50	866.00
710.75	861.00
711.00	884.00
711.25	892.00
711.50	886.00
711.76	852.00
712.01	864.00
712.26	853.00
712.51	876.00
712.77	845.00
713.02	866.00
713.27	854.00
713.52	860.00
713.78	850.00
714.03	864.00
714.28	866.00
714.53	887.00
714.78	864.00
715.04	883.00
715.29	894.00
715.54	897.00
715.79	853.00
716.05	884.00
716.30	879.00
716.55	878.00
716.80	870.00
717.05	888.00
717.31	892.00
717.56	886.00
717.81	855.00
718.06	838.00
718.31	859.00
718.57	875.00
718.82	841.00
719.07	876.00
719.32	874.00
719.57	893.00
719.83	854.00
720.08	876.00
720.33	862.00
720.58	854.00
720.83	828.00
721.09	903.00
721.34	878.00
721.59	886.00
721.84	849.00
722.09	863.00
722.35	880.00
722.60	863.00
722.85	827.00
723.10	864.00
723.35	857.00
723.61	879.00
723.86	880.00
724.11	889.00
724.36	879.00
724.61	871.00
724.87	869.00
725.12	867.00
725.37	872.00
725.62	858.00
725.87	839.00
726.12	845.00
726.38	863.00
726.63	895.00
726.88	860.00
727.13	884.00
727.38	868.00
727.64	872.00
727.89	845.00
728.14	852.00
728.39	848.00
728.64	866.00
728.89	854.00
729.15	878.00
729.40	883.00
729.65	894.00
729.90	838.00
730.15	868.00
730.40	863.00
730.66	868.00
730.91	834.00
731.16	859.00
731.41	882.00
731.66	888.00
731.91	870.00
732.17	886.00
732.42	894.00
732.67	878.00
732.92	846.00
733.17	872.00
733.42	874.00
733.68	886.00
733.93	841.00
734.18	855.00
734.43	844.00
734.68	851.00
734.93	869.00
735.18	881.00
735.44	888.00
735.69	878.00
735.94	820.00
736.19	862.00
736.44	861.00
736.69	919.00
736.95	868.00
737.20	873.00
737.45	867.00
737.70	866.00
737.95	873.00
738.20	882.00
738.45	874.00
738.70	871.00
738.96	865.00
739.21	889.00
739.46	899.00
739.71	910.00
739.96	862.00
740.21	880.00
740.46	948.00
740.72	912.00
740.97	857.00
741.22	874.00
741.47	849.00
741.72	878.00
741.97	848.00
742.22	860.00
742.47	874.00
742.73	854.00
742.98	846.00
743.23	858.00
743.48	855.00
743.73	874.00
743.98	869.00
744.23	857.00
744.48	884.00
744.74	871.00
744.99	842.00
745.24	884.00
745.49	889.00
745.74	894.00
745.99	850.00
746.24	865.00
746.49	862.00
746.74	865.00
747.00	852.00
747.25	884.00
747.50	847.00
747.75	852.00
748.00	830.00
748.25	852.00
748.50	871.00
748.75	885.00
749.00	889.00
749.26	910.00
749.51	885.00
749.76	885.00
750.01	845.00
750.26	882.00
750.51	899.00
750.76	880.00
751.01	841.00
751.26	868.00
751.51	873.00
751.77	881.00
752.02	854.00
752.27	859.00
752.52	876.00
752.77	883.00
753.02	849.00
753.27	863.00
753.52	862.00
753.77	860.00
754.02	846.00
754.27	861.00
754.52	862.00
754.78	873.00
755.03	852.00
755.28	877.00
755.53	871.00
755.78	856.00
756.03	828.00
756.28	868.00
756.53	885.00
756.78	881.00
757.03	855.00
757.28	880.00
757.53	893.00
757.79	858.00
758.04	830.00
758.29	907.00
758.54	883.00
758.79	886.00
759.04	830.00
759.29	844.00
759.54	856.00
759.79	862.00
760.04	852.00
760.29	858.00
760.54	865.00
760.79	867.00
761.04	851.00
761.29	856.00
761.55	842.00
761.80	885.00
762.05	842.00
762.30	869.00
762.55	886.00
762.80	912.00
763.05	883.00
763.30	892.00
763.55	899.00
763.80	879.00
764.05	843.00
764.30	874.00
764.55	904.00
764.80	868.00
765.05	838.00
765.30	880.00
765.55	894.00
765.80	882.00
766.05	842.00
766.30	879.00
766.56	873.00
766.81	908.00
767.06	863.00
767.31	872.00
767.56	860.00
767.81	865.00
768.06	851.00
768.31	886.00
768.56	878.00
768.81	910.00
769.06	844.00
769.31	873.00
769.56	861.00
769.81	888.00
770.06	857.00
770.31	865.00
770.56	878.00
770.81	849.00
771.06	829.00
771.31	862.00
771.56	872.00
771.81	888.00
772.06	840.00
772.31	873.00
772.56	877.00
772.81	895.00
773.06	855.00
773.31	874.00
773.56	881.00
773.81	859.00
774.06	836.00
774.31	866.00
774.56	895.00
774.81	906.00
775.06	875.00
775.31	885.00
775.56	879.00
775.81	884.00
776.06	838.00
776.31	873.00
776.56	870.00
776.82	891.00
777.07	837.00
777.32	868.00
777.57	881.00
777.82	922.00
778.07	859.00
778.32	866.00
778.57	872.00
778.82	896.00
779.07	853.00
779.32	856.00
779.57	839.00
779.82	865.00
780.07	850.00
780.32	860.00
780.56	870.00
780.81	914.00
781.06	844.00
781.31	869.00
781.56	898.00
781.81	890.00
782.06	844.00
782.31	876.00
782.56	878.00
782.81	914.00
783.06	862.00
783.31	876.00
783.56	872.00
783.81	900.00
784.06	858.00
784.31	872.00
784.56	846.00
784.81	909.00
785.06	871.00
785.31	895.00
785.56	855.00
785.81	838.00
786.06	836.00
786.31	885.00
786.56	868.00
786.81	874.00
787.06	866.00
787.31	861.00
787.56	862.00
787.81	845.00
788.06	836.00
788.31	870.00
788.56	852.00
788.81	880.00
789.06	872.00
789.31	855.00
789.56	859.00
789.81	872.00
790.06	844.00
790.31	883.00
790.56	869.00
790.80	869.00
791.05	832.00
791.30	851.00
791.55	845.00
791.80	856.00
792.05	856.00
792.30	853.00
792.55	856.00
792.80	893.00
793.05	855.00
793.30	862.00
793.55	874.00
793.80	877.00
794.05	851.00
794.30	865.00
794.55	858.00
794.80	880.00
795.05	838.00
795.30	849.00
795.54	857.00
795.79	886.00
796.04	847.00
796.29	869.00
796.54	889.00
796.79	907.00
797.04	873.00
797.29	885.00
797.54	891.00
797.79	888.00
798.04	878.00
798.29	854.00
798.54	853.00
798.79	872.00
799.04	827.00
799.29	863.00
799.53	854.00
799.78	870.00
800.03	849.00
800.28	841.00
800.53	858.00
800.78	901.00
801.03	868.00
801.28	879.00
801.53	870.00
801.78	885.00
802.03	862.00
802.28	881.00
802.52	897.00
802.77	902.00
803.02	869.00
803.27	872.00
803.52	834.00
803.77	886.00
804.02	887.00
804.27	887.00
804.52	875.00
804.77	887.00
805.02	866.00
805.27	879.00
805.51	896.00
805.76	905.00
806.01	852.00
806.26	852.00
806.51	859.00
806.76	902.00
807.01	875.00
807.26	859.00
807.51	884.00
807.76	858.00
808.00	830.00
808.25	872.00
808.50	880.00
808.75	875.00
809.00	835.00
809.25	854.00
809.50	867.00
809.75	895.00
810.00	878.00
810.24	850.00
810.49	826.00
810.74	852.00
810.99	852.00
811.24	880.00
811.49	885.00
811.74	885.00
811.99	819.00
812.24	859.00
812.48	850.00
812.73	842.00
812.98	837.00
813.23	839.00
813.48	845.00
813.73	869.00
813.98	836.00
814.23	855.00
814.47	846.00
814.72	853.00
814.97	828.00
815.22	882.00
815.47	840.00
815.72	864.00
815.97	835.00
816.22	847.00
816.46	853.00
816.71	878.00
816.96	856.00
817.21	882.00
817.46	856.00
817.71	870.00
817.96	852.00
818.20	857.00
818.45	845.00
818.70	868.00
818.95	844.00
819.20	865.00
819.45	861.00
819.70	876.00
819.94	843.00
820.19	865.00
820.44	860.00
820.69	891.00
820.94	854.00
821.19	880.00
821.44	928.00
821.68	931.00
821.93	853.00
822.18	876.00
822.43	875.00
822.68	890.00
822.93	851.00
823.17	873.00
823.42	887.00
823.67	869.00
823.92	839.00
824.17	847.00
824.42	859.00
824.67	893.00
824.91	872.00
825.16	864.00
825.41	856.00
825.66	852.00
825.91	832.00
826.16	863.00
826.40	872.00
826.65	880.00
826.90	850.00
827.15	852.00
827.40	855.00
827.65	886.00
827.89	824.00
828.14	867.00
828.39	878.00
828.64	873.00
828.89	835.00
829.13	853.00
829.38	838.00
829.63	872.00
829.88	835.00
830.13	854.00
830.38	856.00
830.62	871.00
830.87	849.00
831.12	887.00
831.37	884.00
831.62	892.00
831.86	848.00
832.11	866.00
832.36	843.00
832.61	876.00
832.86	860.00
833.10	880.00
833.35	878.00
833.60	898.00
833.85	854.00
834.10	872.00
834.35	904.00
834.59	901.00
834.84	868.00
835.09	877.00
835.34	842.00
835.59	871.00
835.83	872.00
836.08	884.00
836.33	878.00
836.58	890.00
836.83	862.00
837.07	883.00
837.32	871.00
837.57	895.00
837.82	851.00
838.06	880.00
838.31	901.00
838.56	896.00
838.81	828.00
839.06	885.00
839.30	856.00
839.55	872.00
839.80	842.00
840.05	871.00
840.30	875.00
840.54	893.00
840.79	839.00
841.04	861.00
841.29	878.00
841.53	879.00
841.78	845.00
842.03	839.00
842.28	854.00
842.53	856.00
842.77	853.00
843.02	887.00
843.27	883.00
843.52	871.00
843.76	851.00
844.01	882.00
844.26	866.00
844.51	878.00
844.75	836.00
845.00	848.00
845.25	854.00
845.50	875.00
845.75	846.00
845.99	869.00
846.24	864.00
846.49	883.00
846.74	831.00
846.98	844.00
847.23	854.00
847.48	890.00
847.73	838.00
847.97	850.00
848.22	890.00
848.47	879.00
848.72	858.00
848.96	860.00
849.21	885.00
849.46	868.00
849.71	856.00
849.95	861.00
850.20	852.00
850.45	866.00
850.70	829.00
850.94	863.00
851.19	857.00
851.44	861.00
851.69	834.00
851.93	859.00
852.18	878.00
852.43	880.00
852.68	851.00
852.92	890.00
853.17	914.00
853.42	906.00
853.66	872.00
853.91	883.00
854.16	880.00
854.41	919.00
854.65	858.00
854.90	853.00
855.15	849.00
855.40	861.00
855.64	870.00
855.89	860.00
856.14	854.00
856.39	867.00
856.63	854.00
856.88	855.00
857.13	845.00
857.37	844.00
857.62	822.00
857.87	839.00
858.12	860.00
858.36	887.00
858.61	815.00
858.86	846.00
859.10	878.00
859.35	872.00
859.60	833.00
859.85	837.00
860.09	836.00
860.34	865.00
860.59	857.00
860.83	862.00
861.08	868.00
861.33	904.00
861.58	853.00
861.82	847.00
862.07	863.00
862.32	866.00
862.56	838.00
862.81	845.00
863.06	846.00
863.30	866.00
863.55	853.00
863.80	858.00
864.05	863.00
864.29	867.00
864.54	862.00
864.79	872.00
865.03	882.00
865.28	885.00
865.53	859.00
865.77	838.00
866.02	876.00
866.27	884.00
866.51	843.00
866.76	835.00
867.01	847.00
867.26	882.00
867.50	846.00
867.75	850.00
868.00	865.00
868.24	882.00
868.49	833.00
868.74	863.00
868.98	861.00
869.23	866.00
869.48	854.00
869.72	854.00
869.97	856.00
870.22	878.00
870.46	844.00
870.71	862.00
870.96	859.00
871.20	870.00
871.45	838.00
871.70	870.00
871.94	901.00
872.19	886.00
872.44	868.00
872.68	858.00
872.93	853.00
873.18	863.00
873.42	850.00
873.67	862.00
873.92	882.00
874.16	876.00
874.41	857.00
874.66	868.00
874.90	897.00
875.15	902.00
875.40	872.00
875.64	871.00
875.89	857.00
876.14	880.00
876.38	855.00
876.63	853.00
876.88	866.00
877.12	889.00
877.37	854.00
877.62	882.00
877.86	869.00
878.11	877.00
878.36	839.00
878.60	875.00
878.85	851.00
879.09	867.00
879.34	844.00
879.59	865.00
879.83	886.00
880.08	905.00
880.33	873.00
880.57	883.00
880.82	873.00
881.07	876.00
881.31	849.00
881.56	849.00
881.80	852.00
882.05	867.00
882.30	841.00
882.54	868.00
882.79	890.00
883.04	908.00
883.28	868.00
883.53	850.00
883.77	863.00
884.02	888.00
884.27	856.00
884.51	848.00
884.76	852.00
885.01	880.00
885.25	833.00
885.50	873.00
885.74	852.00
885.99	896.00
886.24	857.00
886.48	860.00
886.73	884.00
886.98	896.00
887.22	860.00
887.47	865.00
887.71	866.00
887.96	870.00
888.21	859.00
888.45	852.00
888.70	867.00
888.94	888.00
889.19	833.00
889.44	836.00
889.68	864.00
889.93	901.00
890.17	867.00
890.42	847.00
890.67	880.00
890.91	945.00
891.16	846.00
891.40	856.00
891.65	856.00
891.90	892.00
892.14	827.00
892.39	863.00
892.63	863.00
892.88	900.00
893.13	886.00
893.37	855.00
893.62	854.00
893.86	880.00
894.11	866.00
894.36	863.00
894.60	860.00
894.85	866.00
895.09	859.00
895.34	884.00
895.59	868.00
895.83	859.00
896.08	839.00
896.32	850.00
896.57	861.00
896.81	883.00
897.06	847.00
897.31	856.00
897.55	870.00
897.80	842.00
898.04	813.00
898.29	848.00
898.53	873.00
898.78	884.00
899.03	869.00
899.27	865.00
899.52	868.00
899.76	881.00
900.01	837.00
900.25	875.00
900.50	871.00
900.75	886.00
900.99	862.00
901.24	912.00
901.48	883.00
901.73	874.00
901.97	831.00
902.22	863.00
902.47	881.00
902.71	896.00
902.96	856.00
903.20	863.00
903.45	885.00
903.69	874.00
903.94	861.00
904.18	840.00
904.43	867.00
904.68	873.00
904.92	845.00
905.17	860.00
905.41	871.00
905.66	878.00
905.90	862.00
906.15	855.00
906.39	868.00
906.64	867.00
906.88	826.00
907.13	855.00
907.38	882.00
907.62	901.00
907.87	849.00
908.11	873.00
908.36	844.00
908.60	866.00
908.85	828.00
909.09	852.00
909.34	852.00
909.58	882.00
909.83	848.00
910.07	844.00
910.32	893.00
910.56	898.00
910.81	844.00
911.06	876.00
911.30	887.00
911.55	877.00
911.79	854.00
912.04	856.00
912.28	851.00
912.53	886.00
912.77	861.00
913.02	862.00
913.26	869.00
913.51	851.00
913.75	837.00
914.00	859.00
914.24	873.00
914.49	878.00
914.73	846.00
914.98	869.00
915.22	896.00
915.47	881.00
915.71	855.00
915.96	873.00
916.20	861.00
916.45	859.00
916.69	841.00
916.94	882.00
917.18	892.00
917.43	874.00
917.67	833.00
917.92	841.00
918.16	882.00
918.41	884.00
918.65	847.00
918.90	843.00
919.14	838.00
919.39	865.00
919.63	842.00
919.88	839.00
920.12	881.00
920.37	874.00
920.61	846.00
920.86	878.00
921.10	896.00
921.35	870.00
921.59	834.00
921.84	847.00
922.08	877.00
922.33	892.00
922.57	840.00
922.82	845.00
923.06	854.00
923.31	867.00
923.55	825.00
923.80	866.00
924.04	853.00
924.29	886.00
924.53	853.00
924.78	865.00
925.02	852.00
925.27	882.00
925.51	852.00
925.76	865.00
926.00	864.00
926.25	865.00
926.49	835.00
926.73	866.00
926.98	877.00
927.22	887.00
927.47	871.00
927.71	854.00
927.96	885.00
928.20	881.00
928.45	873.00
928.69	904.00
928.94	886.00
929.18	862.00
929.43	858.00
929.67	863.00
929.91	868.00
930.16	880.00
930.40	841.00
930.65	835.00
930.89	869.00
931.14	906.00
931.38	866.00
931.63	888.00
931.87	878.00
932.12	866.00
932.36	836.00
932.60	841.00
932.85	869.00
933.09	859.00
933.34	830.00
933.58	868.00
933.83	856.00
934.07	878.00
934.32	858.00
934.56	875.00
934.80	902.00
935.05	908.00
935.29	865.00
935.54	867.00
935.78	876.00
936.03	878.00
936.27	834.00
936.52	842.00
936.76	871.00
937.00	882.00
937.25	859.00
937.49	869.00
937.74	884.00
937.98	882.00
938.23	825.00
938.47	833.00
938.71	846.00
938.96	844.00
939.20	840.00
939.45	854.00
939.69	867.00
939.94	887.00
940.18	836.00
940.42	858.00
940.67	880.00
940.91	884.00
941.16	853.00
941.40	837.00
941.64	849.00
941.89	882.00
942.13	851.00
942.38	865.00
942.62	930.00
942.87	901.00
943.11	868.00
943.35	848.00
943.60	870.00
943.84	913.00
944.09	852.00
944.33	869.00
944.57	884.00
944.82	877.00
945.06	845.00
945.31	872.00
945.55	857.00
945.79	872.00
946.04	848.00
946.28	853.00
946.53	856.00
946.77	876.00
947.01	831.00
947.26	870.00
947.50	876.00
947.75	865.00
947.99	860.00
948.23	865.00
948.48	888.00
948.72	893.00
948.97	869.00
949.21	861.00
949.45	865.00
949.70	890.00
949.94	859.00
950.18	863.00
950.43	864.00
950.67	883.00
950.92	865.00
951.16	836.00
951.40	847.00
951.65	869.00
951.89	854.00
952.13	861.00
952.38	864.00
952.62	866.00
952.87	853.00
953.11	887.00
953.35	907.00
953.60	881.00
953.84	800.00
954.08	833.00
954.33	855.00
954.57	860.00
954.82	860.00
955.06	845.00
955.30	846.00
955.55	872.00
955.79	858.00
956.03	870.00
956.28	880.00
956.52	869.00
956.76	868.00
957.01	878.00
957.25	868.00
957.50	856.00
957.74	838.00
957.98	841.00
958.23	869.00
958.47	888.00
958.71	885.00
958.96	882.00
959.20	904.00
959.44	885.00
959.69	849.00
959.93	866.00
960.17	862.00
960.42	886.00
960.66	852.00
960.90	861.00
961.15	870.00
961.39	870.00
961.64	837.00
961.88	830.00
962.12	872.00
962.37	876.00
962.61	852.00
962.85	829.00
963.10	877.00
963.34	873.00
963.58	842.00
963.83	869.00
964.07	885.00
964.31	883.00
964.56	863.00
964.80	848.00
965.04	855.00
965.29	857.00
965.53	846.00
965.77	859.00
966.02	828.00
966.26	843.00
966.50	838.00
966.74	874.00
966.99	887.00
967.23	887.00
967.47	869.00
967.72	877.00
967.96	873.00
968.20	860.00
968.45	833.00
968.69	850.00
968.93	848.00
969.18	860.00
969.42	858.00
969.66	864.00
969.91	874.00
970.15	887.00
970.39	837.00
970.64	855.00
970.88	877.00
971.12	888.00
971.36	868.00
971.61	855.00
971.85	848.00
972.09	867.00
972.34	849.00
972.58	858.00
972.82	877.00
973.07	908.00
973.31	837.00
973.55	849.00
973.79	883.00
974.04	901.00
974.28	870.00
974.52	856.00
974.77	857.00
975.01	903.00
975.25	861.00
975.50	871.00
975.74	884.00
975.98	887.00
976.22	869.00
976.47	845.00
976.71	854.00
976.95	881.00
977.20	876.00
977.44	864.00
977.68	871.00
977.92	901.00
978.17	858.00
978.41	849.00
978.65	866.00
978.90	866.00
979.14	857.00
979.38	878.00
979.62	863.00
979.87	862.00
980.11	830.00
980.35	859.00
980.59	876.00
980.84	886.00
981.08	843.00
981.32	848.00
981.57	873.00
981.81	883.00
982.05	855.00
982.29	858.00
982.54	868.00
982.78	884.00
983.02	849.00
983.26	859.00
983.51	898.00
983.75	906.00
983.99	835.00
984.23	871.00
984.48	881.00
984.72	896.00
984.96	844.00
985.20	853.00
985.45	908.00
985.69	888.00
985.93	848.00
986.17	869.00
986.42	860.00
986.66	875.00
986.90	818.00
987.14	840.00
987.39	865.00
987.63	854.00
987.87	829.00
988.11	845.00
988.36	877.00
988.60	876.00
988.84	864.00
989.08	841.00
989.33	869.00
989.57	906.00
989.81	832.00
990.05	845.00
990.30	859.00
990.54	844.00
990.78	849.00
991.02	842.00
991.27	872.00
991.51	885.00
991.75	852.00
991.99	877.00
992.23	853.00
992.48	838.00
992.72	822.00
992.96	842.00
993.20	856.00
993.45	871.00
993.69	879.00
993.93	850.00
994.17	868.00
994.41	878.00
994.66	822.00
994.90	851.00
995.14	897.00
995.38	873.00
995.63	848.00
995.87	856.00
996.11	914.00
996.35	890.00
996.59	817.00
996.84	829.00
997.08	866.00
997.32	854.00
997.56	856.00
997.80	837.00
998.05	843.00
998.29	854.00
998.53	836.00
998.77	851.00
999.01	877.00
999.26	893.00
999.50	843.00
999.74	839.00
999.98	860.00
1000.22	880.00
1000.47	830.00
1000.71	836.00
1000.95	867.00
1001.19	875.00
1001.43	862.00
1001.68	868.00
1001.92	861.00
1002.16	866.00
1002.40	833.00
1002.64	860.00
1002.89	863.00
1003.13	856.00
1003.37	854.00
1003.61	836.00
1003.85	857.00
1004.10	881.00
1004.34	853.00
1004.58	840.00
1004.82	882.00
1005.06	869.00
1005.30	847.00
1005.55	845.00
1005.79	870.00
1006.03	864.00
1006.27	839.00
1006.51	849.00
1006.76	878.00
1007.00	888.00
1007.24	845.00
1007.48	867.00
1007.72	890.00
1007.96	890.00
1008.21	875.00
1008.45	886.00
1008.69	894.00
1008.93	909.00
1009.17	864.00
1009.41	879.00
1009.66	888.00
1009.90	856.00
1010.14	839.00
1010.38	864.00
1010.62	904.00
1010.86	912.00
1011.10	886.00
1011.35	854.00
1011.59	860.00
1011.83	845.00
1012.07	832.00
1012.31	848.00
1012.55	848.00
1012.80	867.00
1013.04	861.00
1013.28	864.00
1013.52	864.00
1013.76	882.00
1014.00	839.00
1014.24	848.00
1014.49	871.00
1014.73	910.00
1014.97	872.00
1015.21	856.00
1015.45	889.00
1015.69	882.00
1015.93	856.00
1016.18	852.00
1016.42	885.00
1016.66	890.00
1016.90	850.00
1017.14	835.00
1017.38	845.00
1017.62	878.00
1017.87	849.00
1018.11	850.00
1018.35	861.00
1018.59	872.00
1018.83	845.00
1019.07	846.00
1019.31	896.00
1019.55	904.00
1019.80	861.00
1020.04	852.00
1020.28	869.00
1020.52	890.00
1020.76	833.00
1021.00	828.00
1021.24	857.00
1021.48	854.00
1021.73	860.00
1021.97	867.00
1022.21	851.00
1022.45	883.00
1022.69	843.00
1022.93	847.00
1023.17	870.00
1023.41	894.00
1023.65	853.00
1023.90	893.00
1024.14	894.00
1024.38	857.00
1024.62	835.00
1024.86	859.00
1025.10	890.00
1025.34	866.00
1025.58	834.00
1025.82	857.00
1026.07	910.00
1026.31	890.00
1026.55	858.00
1026.79	845.00
1027.03	869.00
1027.27	884.00
1027.51	840.00
1027.75	826.00
1027.99	846.00
1028.23	909.00
1028.47	866.00
1028.72	847.00
1028.96	869.00
1029.20	876.00
1029.44	862.00
1029.68	866.00
1029.92	882.00
1030.16	891.00
1030.40	833.00
1030.64	843.00
1030.88	855.00
1031.12	868.00
1031.37	820.00
1031.61	849.00
1031.85	896.00
1032.09	899.00
1032.33	844.00
1032.57	893.00
1032.81	877.00
1033.05	889.00
1033.29	846.00
1033.53	848.00
1033.77	927.00
1034.01	901.00
1034.25	874.00
1034.50	869.00
1034.74	860.00
1034.98	880.00
1035.22	864.00
1035.46	891.00
1035.70	884.00
1035.94	898.00
1036.18	859.00
1036.42	850.00
1036.66	851.00
1036.90	873.00
1037.14	832.00
1037.38	849.00
1037.62	871.00
1037.86	868.00
1038.10	866.00
1038.35	855.00
1038.59	875.00
1038.83	877.00
1039.07	869.00
1039.31	862.00
1039.55	853.00
1039.79	866.00
1040.03	835.00
1040.27	841.00
1040.51	891.00
1040.75	921.00
1040.99	878.00
1041.23	876.00
1041.47	865.00
1041.71	896.00
1041.95	853.00
1042.19	828.00
1042.43	896.00
1042.67	912.00
1042.91	855.00
1043.15	860.00
1043.39	896.00
1043.64	876.00
1043.88	837.00
1044.12	863.00
1044.36	918.00
1044.60	899.00
1044.84	879.00
1045.08	854.00
1045.32	874.00
1045.56	879.00
1045.80	851.00
1046.04	842.00
1046.28	888.00
1046.52	895.00
1046.76	834.00
1047.00	842.00
1047.24	879.00
1047.48	859.00
1047.72	843.00
1047.96	849.00
1048.20	879.00
1048.44	876.00
1048.68	847.00
1048.92	859.00
1049.16	873.00
1049.40	878.00
1049.64	854.00
1049.88	876.00
1050.12	895.00
1050.36	902.00
1050.60	851.00
1050.84	842.00
1051.08	864.00
1051.32	865.00
1051.56	860.00
1051.80	856.00
1052.04	868.00
1052.28	892.00
1052.52	840.00
1052.76	839.00
1053.00	860.00
1053.24	878.00
1053.48	835.00
1053.72	864.00
1053.96	881.00
1054.20	884.00
1054.44	877.00
1054.68	866.00
1054.92	879.00
1055.16	842.00
1055.40	839.00
1055.64	874.00
1055.88	895.00
1056.12	905.00
1056.36	835.00
1056.60	843.00
1056.84	891.00
1057.08	886.00
1057.32	851.00
1057.56	847.00
1057.80	868.00
1058.04	907.00
1058.28	854.00
1058.52	878.00
1058.76	891.00
1059.00	897.00
1059.24	843.00
1059.48	846.00
1059.72	878.00
1059.96	866.00
1060.20	868.00
1060.44	881.00
1060.68	893.00
1060.92	876.00
1061.16	832.00
1061.40	862.00
1061.64	870.00
1061.88	872.00
1062.11	845.00
1062.35	836.00
1062.59	857.00
1062.83	892.00
1063.07	856.00
1063.31	838.00
1063.55	845.00
1063.79	884.00
1064.03	842.00
1064.27	841.00
1064.51	885.00
1064.75	898.00
1064.99	856.00
1065.23	870.00
1065.47	849.00
1065.71	882.00
1065.95	859.00
1066.19	855.00
1066.43	877.00
1066.67	883.00
1066.91	872.00
1067.15	859.00
1067.38	863.00
1067.62	866.00
1067.86	828.00
1068.10	851.00
1068.34	881.00
1068.58	908.00
1068.82	857.00
1069.06	826.00
1069.30	868.00
1069.54	906.00
1069.78	882.00
1070.02	861.00
1070.26	885.00
1070.50	897.00
1070.74	855.00
1070.98	882.00
1071.21	896.00
1071.45	878.00
1071.69	844.00
1071.93	862.00
1072.17	874.00
1072.41	882.00
1072.65	873.00
1072.89	884.00
1073.13	872.00
1073.37	874.00
1073.61	853.00
1073.85	869.00
1074.09	854.00
1074.32	856.00
1074.56	854.00
1074.80	932.00
1075.04	1097.00
1075.28	962.00
1075.52	853.00
1075.76	849.00
1076.00	877.00
1076.24	882.00
1076.48	872.00
1076.72	871.00
1076.96	903.00
1077.19	894.00
1077.43	840.00
1077.67	867.00
1077.91	869.00
1078.15	856.00
1078.39	841.00
1078.63	848.00
1078.87	868.00
1079.11	889.00
1079.35	849.00
1079.58	850.00
1079.82	870.00
1080.06	864.00
1080.30	832.00
1080.54	868.00
1080.78	886.00
1081.02	859.00
1081.26	861.00
1081.50	883.00
1081.74	885.00
1081.97	888.00
1082.21	842.00
1082.45	882.00
1082.69	869.00
1082.93	854.00
1083.17	876.00
1083.41	854.00
1083.65	902.00
1083.88	908.00
1084.12	869.00
1084.36	872.00
1084.60	875.00
1084.84	882.00
1085.08	831.00
1085.32	846.00
1085.56	889.00
1085.80	873.00
1086.03	830.00
1086.27	836.00
1086.51	863.00
1086.75	869.00
1086.99	848.00
1087.23	839.00
1087.47	864.00
1087.70	871.00
1087.94	862.00
1088.18	892.00
1088.42	921.00
1088.66	882.00
1088.90	818.00
1089.14	837.00
1089.38	866.00
1089.61	888.00
1089.85	853.00
1090.09	845.00
1090.33	893.00
1090.57	874.00
1090.81	840.00
1091.05	858.00
1091.28	870.00
1091.52	875.00
1091.76	849.00
1092.00	865.00
1092.24	899.00
1092.48	894.00
1092.71	823.00
1092.95	863.00
1093.19	873.00
1093.43	868.00
1093.67	842.00
1093.91	859.00
1094.15	879.00
1094.38	882.00
1094.62	841.00
1094.86	840.00
1095.10	838.00
1095.34	872.00
1095.58	861.00
1095.81	875.00
1096.05	902.00
1096.29	904.00
1096.53	831.00
1096.77	861.00
1097.01	876.00
1097.24	901.00
1097.48	845.00
1097.72	863.00
1097.96	856.00
1098.20	888.00
1098.44	843.00
1098.67	816.00
1098.91	873.00
1099.15	875.00
1099.39	836.00
1099.63	861.00
1099.86	879.00
1100.10	873.00
1100.34	861.00
1100.58	847.00
1100.82	875.00
1101.06	868.00
1101.29	838.00
1101.53	866.00
1101.77	874.00
1102.01	856.00
1102.25	851.00
1102.48	872.00
1102.72	899.00
1102.96	884.00
1103.20	820.00
1103.44	853.00
1103.67	868.00
1103.91	878.00
1104.15	811.00
1104.39	836.00
1104.63	863.00
1104.86	842.00
1105.10	840.00
1105.34	859.00
1105.58	862.00
1105.82	870.00
1106.05	853.00
1106.29	870.00
1106.53	867.00
1106.77	902.00
1107.01	846.00
1107.24	873.00
1107.48	898.00
1107.72	884.00
1107.96	836.00
1108.20	836.00
1108.43	857.00
1108.67	839.00
1108.91	844.00
1109.15	833.00
1109.39	863.00
1109.62	874.00
1109.86	824.00
1110.10	848.00
1110.34	906.00
1110.57	925.00
1110.81	856.00
1111.05	852.00
1111.29	903.00
1111.53	913.00
1111.76	837.00
1112.00	891.00
1112.24	908.00
1112.48	882.00
1112.71	838.00
1112.95	844.00
1113.19	889.00
1113.43	884.00
1113.66	832.00
1113.90	857.00
1114.14	881.00
1114.38	889.00
1114.62	832.00
1114.85	882.00
1115.09	884.00
1115.33	906.00
1115.57	849.00
1115.80	851.00
1116.04	857.00
1116.28	873.00
1116.52	847.00
1116.75	857.00
1116.99	890.00
1117.23	905.00
1117.47	867.00
1117.70	888.00
1117.94	924.00
1118.18	859.00
1118.42	846.00
1118.65	877.00
1118.89	887.00
1119.13	863.00
1119.37	851.00
1119.60	874.00
1119.84	880.00
>>>>>End Processed Spectral Data<<<<<
