SpectraSuite Data File
++++++++++++++++++++++++++++++++++++
Date: Fri Dec 06 14:39:59 CET 2024
User: student
Dark Spectrum Present: No
Reference Spectrum Present: No
Number of Sampled Component Spectra: 1
Spectrometers: HR4C155
Integration Time (usec): 100000 (HR4C155)
Spectra Averaged: 1 (HR4C155)
Boxcar Smoothing: 0 (HR4C155)
Correct for Electrical Dark: No (HR4C155)
Strobe/Lamp Enabled: No (HR4C155)
Correct for Detector Non-linearity: No (HR4C155)
Correct for Stray Light: No (HR4C155)
Number of Pixels in Processed Spectrum: 3648
>>>>>Begin Processed Spectral Data<<<<<
195.39	696.00
195.66	696.00
195.93	696.00
196.20	663.00
196.46	703.00
196.73	802.00
197.00	818.00
197.27	805.00
197.54	827.00
197.81	822.00
198.08	834.00
198.35	854.00
198.61	869.00
198.88	833.00
199.15	831.00
199.42	862.00
199.69	871.00
199.96	844.00
200.23	843.00
200.49	843.00
200.76	877.00
201.03	860.00
201.30	859.00
201.57	909.00
201.84	908.00
202.11	863.00
202.38	900.00
202.64	907.00
202.91	906.00
203.18	849.00
203.45	902.00
203.72	977.00
203.99	903.00
204.25	886.00
204.52	881.00
204.79	902.00
205.06	899.00
205.33	847.00
205.60	876.00
205.87	915.00
206.13	907.00
206.40	873.00
206.67	876.00
206.94	898.00
207.21	909.00
207.48	873.00
207.75	873.00
208.01	909.00
208.28	911.00
208.55	862.00
208.82	882.00
209.09	879.00
209.36	904.00
209.62	868.00
209.89	903.00
210.16	925.00
210.43	945.00
210.70	869.00
210.97	858.00
211.23	901.00
211.50	929.00
211.77	888.00
212.04	885.00
212.31	890.00
212.58	917.00
212.84	886.00
213.11	881.00
213.38	856.00
213.65	885.00
213.92	886.00
214.18	888.00
214.45	922.00
214.72	910.00
214.99	888.00
215.26	893.00
215.53	883.00
215.79	899.00
216.06	894.00
216.33	910.00
216.60	877.00
216.87	897.00
217.13	846.00
217.40	878.00
217.67	902.00
217.94	943.00
218.21	872.00
218.48	913.00
218.74	953.00
219.01	899.00
219.28	844.00
219.55	852.00
219.82	887.00
220.08	908.00
220.35	876.00
220.62	875.00
220.89	917.00
221.16	925.00
221.42	898.00
221.69	889.00
221.96	893.00
222.23	914.00
222.50	911.00
222.76	908.00
223.03	876.00
223.30	883.00
223.57	865.00
223.84	843.00
224.10	858.00
224.37	890.00
224.64	869.00
224.91	887.00
225.18	910.00
225.44	911.00
225.71	870.00
225.98	904.00
226.25	915.00
226.51	926.00
226.78	862.00
227.05	871.00
227.32	872.00
227.59	890.00
227.85	885.00
228.12	888.00
228.39	912.00
228.66	917.00
228.92	920.00
229.19	887.00
229.46	905.00
229.73	878.00
230.00	859.00
230.26	898.00
230.53	918.00
230.80	901.00
231.07	851.00
231.33	866.00
231.60	887.00
231.87	902.00
232.14	876.00
232.41	907.00
232.67	910.00
232.94	919.00
233.21	870.00
233.48	879.00
233.74	887.00
234.01	885.00
234.28	860.00
234.55	876.00
234.81	850.00
235.08	913.00
235.35	865.00
235.62	874.00
235.88	887.00
236.15	911.00
236.42	892.00
236.69	892.00
236.95	921.00
237.22	881.00
237.49	864.00
237.76	875.00
238.02	912.00
238.29	897.00
238.56	859.00
238.83	869.00
239.09	885.00
239.36	916.00
239.63	884.00
239.90	881.00
240.16	931.00
240.43	948.00
240.70	883.00
240.97	882.00
241.23	886.00
241.50	899.00
241.77	874.00
242.04	867.00
242.30	840.00
242.57	884.00
242.84	843.00
243.11	871.00
243.37	861.00
243.64	903.00
243.91	867.00
244.18	867.00
244.44	849.00
244.71	857.00
244.98	864.00
245.24	873.00
245.51	878.00
245.78	900.00
246.05	858.00
246.31	861.00
246.58	893.00
246.85	891.00
247.12	870.00
247.38	879.00
247.65	887.00
247.92	913.00
248.18	880.00
248.45	872.00
248.72	870.00
248.99	896.00
249.25	858.00
249.52	881.00
249.79	901.00
250.05	908.00
250.32	870.00
250.59	885.00
250.86	877.00
251.12	883.00
251.39	865.00
251.66	875.00
251.92	932.00
252.19	923.00
252.46	864.00
252.73	914.00
252.99	917.00
253.26	923.00
253.53	863.00
253.79	893.00
254.06	887.00
254.33	886.00
254.60	852.00
254.86	889.00
255.13	917.00
255.40	922.00
255.66	869.00
255.93	886.00
256.20	895.00
256.46	910.00
256.73	881.00
257.00	883.00
257.26	897.00
257.53	914.00
257.80	872.00
258.07	880.00
258.33	938.00
258.60	909.00
258.87	871.00
259.13	888.00
259.40	868.00
259.67	903.00
259.93	877.00
260.20	886.00
260.47	906.00
260.73	875.00
261.00	863.00
261.27	882.00
261.53	891.00
261.80	884.00
262.07	853.00
262.34	876.00
262.60	865.00
262.87	898.00
263.14	854.00
263.40	885.00
263.67	874.00
263.94	883.00
264.20	850.00
264.47	844.00
264.74	864.00
265.00	873.00
265.27	852.00
265.54	867.00
265.80	885.00
266.07	913.00
266.34	871.00
266.60	873.00
266.87	893.00
267.14	918.00
267.40	850.00
267.67	853.00
267.94	881.00
268.20	886.00
268.47	871.00
268.74	861.00
269.00	900.00
269.27	871.00
269.54	858.00
269.80	856.00
270.07	898.00
270.33	882.00
270.60	870.00
270.87	874.00
271.13	874.00
271.40	891.00
271.67	837.00
271.93	830.00
272.20	861.00
272.47	854.00
272.73	831.00
273.00	872.00
273.27	869.00
273.53	911.00
273.80	848.00
274.07	847.00
274.33	873.00
274.60	901.00
274.86	888.00
275.13	872.00
275.40	870.00
275.66	915.00
275.93	872.00
276.20	855.00
276.46	871.00
276.73	884.00
277.00	880.00
277.26	885.00
277.53	902.00
277.79	883.00
278.06	857.00
278.33	907.00
278.59	897.00
278.86	879.00
279.13	877.00
279.39	883.00
279.66	905.00
279.93	913.00
280.19	882.00
280.46	875.00
280.72	892.00
280.99	897.00
281.26	840.00
281.52	871.00
281.79	887.00
282.05	889.00
282.32	863.00
282.59	882.00
282.85	913.00
283.12	902.00
283.39	866.00
283.65	884.00
283.92	891.00
284.18	901.00
284.45	863.00
284.72	876.00
284.98	890.00
285.25	882.00
285.51	890.00
285.78	887.00
286.05	882.00
286.31	878.00
286.58	852.00
286.84	854.00
287.11	843.00
287.38	877.00
287.64	883.00
287.91	850.00
288.17	898.00
288.44	899.00
288.71	842.00
288.97	880.00
289.24	903.00
289.50	881.00
289.77	878.00
290.04	845.00
290.30	875.00
290.57	908.00
290.83	858.00
291.10	856.00
291.37	873.00
291.63	876.00
291.90	897.00
292.16	880.00
292.43	894.00
292.70	875.00
292.96	825.00
293.23	840.00
293.49	872.00
293.76	877.00
294.02	860.00
294.29	860.00
294.56	895.00
294.82	888.00
295.09	863.00
295.35	858.00
295.62	904.00
295.89	909.00
296.15	866.00
296.42	871.00
296.68	881.00
296.95	880.00
297.21	889.00
297.48	860.00
297.75	870.00
298.01	910.00
298.28	869.00
298.54	881.00
298.81	904.00
299.07	884.00
299.34	837.00
299.61	863.00
299.87	899.00
300.14	876.00
300.40	881.00
300.67	866.00
300.93	881.00
301.20	913.00
301.46	857.00
301.73	872.00
302.00	881.00
302.26	869.00
302.53	869.00
302.79	880.00
303.06	885.00
303.32	942.00
303.59	868.00
303.85	854.00
304.12	875.00
304.39	896.00
304.65	864.00
304.92	873.00
305.18	894.00
305.45	901.00
305.71	878.00
305.98	874.00
306.24	873.00
306.51	864.00
306.77	858.00
307.04	873.00
307.31	902.00
307.57	895.00
307.84	836.00
308.10	856.00
308.37	856.00
308.63	860.00
308.90	853.00
309.16	870.00
309.43	890.00
309.69	879.00
309.96	866.00
310.22	857.00
310.49	875.00
310.76	904.00
311.02	843.00
311.29	877.00
311.55	877.00
311.82	891.00
312.08	861.00
312.35	877.00
312.61	884.00
312.88	916.00
313.14	877.00
313.41	860.00
313.67	854.00
313.94	883.00
314.20	872.00
314.47	900.00
314.73	883.00
315.00	870.00
315.26	863.00
315.53	889.00
315.79	888.00
316.06	891.00
316.32	861.00
316.59	883.00
316.85	857.00
317.12	888.00
317.39	842.00
317.65	868.00
317.92	877.00
318.18	899.00
318.45	864.00
318.71	896.00
318.98	915.00
319.24	897.00
319.51	858.00
319.77	868.00
320.04	883.00
320.30	891.00
320.57	877.00
320.83	856.00
321.10	837.00
321.36	875.00
321.63	840.00
321.89	854.00
322.16	901.00
322.42	903.00
322.69	845.00
322.95	850.00
323.22	882.00
323.48	905.00
323.75	853.00
324.01	869.00
324.28	891.00
324.54	901.00
324.80	878.00
325.07	888.00
325.33	898.00
325.60	873.00
325.86	857.00
326.13	866.00
326.39	879.00
326.66	875.00
326.92	815.00
327.19	860.00
327.45	903.00
327.72	915.00
327.98	864.00
328.25	851.00
328.51	875.00
328.78	886.00
329.04	854.00
329.31	869.00
329.57	881.00
329.84	889.00
330.10	852.00
330.37	885.00
330.63	913.00
330.89	921.00
331.16	868.00
331.42	870.00
331.69	910.00
331.95	886.00
332.22	876.00
332.48	903.00
332.75	884.00
333.01	861.00
333.28	852.00
333.54	867.00
333.81	876.00
334.07	891.00
334.34	862.00
334.60	892.00
334.86	925.00
335.13	914.00
335.39	872.00
335.66	873.00
335.92	900.00
336.19	905.00
336.45	835.00
336.72	864.00
336.98	858.00
337.24	883.00
337.51	849.00
337.77	867.00
338.04	900.00
338.30	894.00
338.57	849.00
338.83	871.00
339.10	885.00
339.36	883.00
339.63	864.00
339.89	847.00
340.15	866.00
340.42	889.00
340.68	881.00
340.95	867.00
341.21	875.00
341.48	882.00
341.74	827.00
342.00	857.00
342.27	891.00
342.53	884.00
342.80	857.00
343.06	865.00
343.33	899.00
343.59	888.00
343.85	855.00
344.12	871.00
344.38	927.00
344.65	908.00
344.91	867.00
345.18	870.00
345.44	878.00
345.70	872.00
345.97	837.00
346.23	866.00
346.50	897.00
346.76	899.00
347.03	872.00
347.29	857.00
347.55	865.00
347.82	875.00
348.08	821.00
348.35	844.00
348.61	940.00
348.87	897.00
349.14	845.00
349.40	854.00
349.67	894.00
349.93	881.00
350.20	876.00
350.46	870.00
350.72	906.00
350.99	891.00
351.25	854.00
351.52	867.00
351.78	889.00
352.04	905.00
352.31	874.00
352.57	866.00
352.84	865.00
353.10	876.00
353.36	874.00
353.63	867.00
353.89	892.00
354.16	891.00
354.42	855.00
354.68	880.00
354.95	915.00
355.21	906.00
355.48	860.00
355.74	894.00
356.00	904.00
356.27	920.00
356.53	861.00
356.80	859.00
357.06	877.00
357.32	895.00
357.59	870.00
357.85	890.00
358.11	927.00
358.38	902.00
358.64	858.00
358.91	879.00
359.17	886.00
359.43	901.00
359.70	875.00
359.96	877.00
360.22	900.00
360.49	881.00
360.75	864.00
361.02	857.00
361.28	859.00
361.54	876.00
361.81	836.00
362.07	860.00
362.33	874.00
362.60	869.00
362.86	854.00
363.13	869.00
363.39	894.00
363.65	903.00
363.92	826.00
364.18	839.00
364.44	877.00
364.71	885.00
364.97	859.00
365.24	866.00
365.50	899.00
365.76	912.00
366.03	865.00
366.29	890.00
366.55	903.00
366.82	881.00
367.08	842.00
367.34	858.00
367.61	892.00
367.87	888.00
368.13	868.00
368.40	859.00
368.66	918.00
368.93	905.00
369.19	839.00
369.45	839.00
369.72	878.00
369.98	858.00
370.24	837.00
370.51	842.00
370.77	871.00
371.03	880.00
371.30	859.00
371.56	894.00
371.82	908.00
372.09	894.00
372.35	871.00
372.61	869.00
372.88	881.00
373.14	892.00
373.40	867.00
373.67	864.00
373.93	885.00
374.19	897.00
374.46	849.00
374.72	858.00
374.98	877.00
375.25	885.00
375.51	880.00
375.77	905.00
376.04	910.00
376.30	902.00
376.56	846.00
376.83	863.00
377.09	885.00
377.35	878.00
377.62	857.00
377.88	859.00
378.14	855.00
378.41	885.00
378.67	878.00
378.93	851.00
379.20	883.00
379.46	869.00
379.72	832.00
379.99	854.00
380.25	866.00
380.51	862.00
380.77	852.00
381.04	885.00
381.30	897.00
381.56	909.00
381.83	876.00
382.09	858.00
382.35	877.00
382.62	881.00
382.88	861.00
383.14	876.00
383.41	877.00
383.67	876.00
383.93	869.00
384.20	865.00
384.46	877.00
384.72	896.00
384.98	850.00
385.25	883.00
385.51	888.00
385.77	879.00
386.04	844.00
386.30	845.00
386.56	895.00
386.82	923.00
387.09	859.00
387.35	890.00
387.61	949.00
387.88	877.00
388.14	857.00
388.40	860.00
388.67	865.00
388.93	873.00
389.19	863.00
389.45	862.00
389.72	884.00
389.98	897.00
390.24	869.00
390.51	870.00
390.77	897.00
391.03	909.00
391.29	855.00
391.56	865.00
391.82	894.00
392.08	908.00
392.35	866.00
392.61	873.00
392.87	899.00
393.13	906.00
393.40	877.00
393.66	842.00
393.92	881.00
394.18	869.00
394.45	839.00
394.71	863.00
394.97	883.00
395.24	871.00
395.50	855.00
395.76	871.00
396.02	897.00
396.29	900.00
396.55	837.00
396.81	806.00
397.07	874.00
397.34	863.00
397.60	831.00
397.86	846.00
398.12	846.00
398.39	886.00
398.65	873.00
398.91	855.00
399.17	877.00
399.44	850.00
399.70	821.00
399.96	838.00
400.22	868.00
400.49	908.00
400.75	863.00
401.01	849.00
401.27	864.00
401.54	889.00
401.80	857.00
402.06	858.00
402.32	890.00
402.59	884.00
402.85	857.00
403.11	874.00
403.37	867.00
403.64	902.00
403.90	849.00
404.16	859.00
404.42	869.00
404.69	863.00
404.95	852.00
405.21	851.00
405.47	870.00
405.74	900.00
406.00	849.00
406.26	836.00
406.52	854.00
406.79	886.00
407.05	852.00
407.31	859.00
407.57	856.00
407.83	898.00
408.10	841.00
408.36	855.00
408.62	870.00
408.88	873.00
409.15	849.00
409.41	835.00
409.67	868.00
409.93	909.00
410.20	879.00
410.46	867.00
410.72	854.00
410.98	860.00
411.24	852.00
411.51	858.00
411.77	861.00
412.03	885.00
412.29	873.00
412.55	883.00
412.82	857.00
413.08	882.00
413.34	863.00
413.60	880.00
413.87	878.00
414.13	882.00
414.39	835.00
414.65	841.00
414.91	876.00
415.18	864.00
415.44	837.00
415.70	854.00
415.96	871.00
416.22	877.00
416.49	837.00
416.75	838.00
417.01	875.00
417.27	877.00
417.53	859.00
417.80	865.00
418.06	867.00
418.32	889.00
418.58	840.00
418.84	846.00
419.11	882.00
419.37	888.00
419.63	857.00
419.89	858.00
420.15	883.00
420.42	878.00
420.68	842.00
420.94	870.00
421.20	873.00
421.46	882.00
421.72	876.00
421.99	885.00
422.25	885.00
422.51	888.00
422.77	864.00
423.03	882.00
423.30	869.00
423.56	869.00
423.82	870.00
424.08	869.00
424.34	881.00
424.60	869.00
424.87	867.00
425.13	836.00
425.39	855.00
425.65	869.00
425.91	876.00
426.18	873.00
426.44	884.00
426.70	856.00
426.96	815.00
427.22	840.00
427.48	860.00
427.75	880.00
428.01	829.00
428.27	869.00
428.53	899.00
428.79	873.00
429.05	839.00
429.32	867.00
429.58	913.00
429.84	875.00
430.10	862.00
430.36	861.00
430.62	900.00
430.88	885.00
431.15	868.00
431.41	863.00
431.67	861.00
431.93	868.00
432.19	840.00
432.45	864.00
432.72	877.00
432.98	890.00
433.24	894.00
433.50	951.00
433.76	874.00
434.02	877.00
434.28	829.00
434.55	844.00
434.81	882.00
435.07	881.00
435.33	825.00
435.59	837.00
435.85	875.00
436.11	881.00
436.38	835.00
436.64	833.00
436.90	866.00
437.16	850.00
437.42	837.00
437.68	852.00
437.94	876.00
438.21	901.00
438.47	897.00
438.73	877.00
438.99	860.00
439.25	871.00
439.51	841.00
439.77	860.00
440.03	858.00
440.30	890.00
440.56	866.00
440.82	891.00
441.08	920.00
441.34	891.00
441.60	830.00
441.86	864.00
442.12	906.00
442.39	883.00
442.65	861.00
442.91	856.00
443.17	873.00
443.43	877.00
443.69	864.00
443.95	843.00
444.21	849.00
444.47	885.00
444.74	852.00
445.00	857.00
445.26	864.00
445.52	855.00
445.78	826.00
446.04	855.00
446.30	913.00
446.56	894.00
446.82	824.00
447.09	846.00
447.35	876.00
447.61	887.00
447.87	865.00
448.13	860.00
448.39	911.00
448.65	899.00
448.91	855.00
449.17	855.00
449.43	860.00
449.70	864.00
449.96	827.00
450.22	851.00
450.48	878.00
450.74	913.00
451.00	853.00
451.26	853.00
451.52	870.00
451.78	865.00
452.04	842.00
452.31	874.00
452.57	885.00
452.83	873.00
453.09	846.00
453.35	853.00
453.61	873.00
453.87	869.00
454.13	883.00
454.39	877.00
454.65	927.00
454.91	914.00
455.17	845.00
455.44	861.00
455.70	881.00
455.96	877.00
456.22	836.00
456.48	843.00
456.74	885.00
457.00	866.00
457.26	817.00
457.52	841.00
457.78	850.00
458.04	873.00
458.30	823.00
458.56	852.00
458.82	873.00
459.09	857.00
459.35	820.00
459.61	830.00
459.87	860.00
460.13	887.00
460.39	865.00
460.65	842.00
460.91	881.00
461.17	856.00
461.43	825.00
461.69	836.00
461.95	869.00
462.21	854.00
462.47	845.00
462.73	878.00
462.99	902.00
463.26	882.00
463.52	837.00
463.78	830.00
464.04	848.00
464.30	864.00
464.56	833.00
464.82	855.00
465.08	900.00
465.34	919.00
465.60	864.00
465.86	839.00
466.12	857.00
466.38	855.00
466.64	851.00
466.90	860.00
467.16	881.00
467.42	872.00
467.68	830.00
467.94	869.00
468.20	908.00
468.46	881.00
468.72	845.00
468.98	870.00
469.25	898.00
469.51	859.00
469.77	864.00
470.03	874.00
470.29	875.00
470.55	883.00
470.81	868.00
471.07	862.00
471.33	881.00
471.59	882.00
471.85	851.00
472.11	863.00
472.37	882.00
472.63	861.00
472.89	858.00
473.15	861.00
473.41	879.00
473.67	874.00
473.93	829.00
474.19	836.00
474.45	845.00
474.71	869.00
474.97	843.00
475.23	849.00
475.49	853.00
475.75	854.00
476.01	875.00
476.27	883.00
476.53	902.00
476.79	888.00
477.05	868.00
477.31	859.00
477.57	862.00
477.83	865.00
478.09	830.00
478.35	868.00
478.61	893.00
478.87	877.00
479.13	849.00
479.39	885.00
479.65	910.00
479.91	883.00
480.17	855.00
480.43	872.00
480.69	849.00
480.95	867.00
481.21	862.00
481.47	864.00
481.73	869.00
481.99	858.00
482.25	837.00
482.51	838.00
482.77	885.00
483.03	889.00
483.29	865.00
483.55	846.00
483.81	882.00
484.07	867.00
484.33	840.00
484.59	850.00
484.85	882.00
485.11	876.00
485.37	844.00
485.63	856.00
485.89	870.00
486.15	857.00
486.41	841.00
486.67	859.00
486.93	875.00
487.19	864.00
487.45	828.00
487.71	836.00
487.97	882.00
488.23	877.00
488.49	847.00
488.75	845.00
489.01	883.00
489.27	910.00
489.53	853.00
489.79	848.00
490.05	859.00
490.31	882.00
490.57	877.00
490.83	918.00
491.08	885.00
491.34	846.00
491.60	820.00
491.86	868.00
492.12	900.00
492.38	908.00
492.64	852.00
492.90	837.00
493.16	869.00
493.42	848.00
493.68	843.00
493.94	862.00
494.20	851.00
494.46	866.00
494.72	856.00
494.98	836.00
495.24	856.00
495.50	863.00
495.76	857.00
496.02	855.00
496.28	884.00
496.54	891.00
496.80	867.00
497.05	822.00
497.31	846.00
497.57	861.00
497.83	831.00
498.09	856.00
498.35	874.00
498.61	875.00
498.87	865.00
499.13	863.00
499.39	872.00
499.65	860.00
499.91	865.00
500.17	842.00
500.43	914.00
500.69	925.00
500.95	848.00
501.20	891.00
501.46	889.00
501.72	892.00
501.98	871.00
502.24	877.00
502.50	900.00
502.76	865.00
503.02	860.00
503.28	867.00
503.54	910.00
503.80	910.00
504.06	873.00
504.32	885.00
504.58	886.00
504.83	876.00
505.09	834.00
505.35	855.00
505.61	855.00
505.87	881.00
506.13	862.00
506.39	851.00
506.65	893.00
506.91	917.00
507.17	861.00
507.43	845.00
507.68	861.00
507.94	893.00
508.20	840.00
508.46	840.00
508.72	882.00
508.98	902.00
509.24	847.00
509.50	884.00
509.76	868.00
510.02	864.00
510.28	836.00
510.53	861.00
510.79	887.00
511.05	860.00
511.31	844.00
511.57	856.00
511.83	867.00
512.09	877.00
512.35	843.00
512.61	858.00
512.87	873.00
513.12	895.00
513.38	836.00
513.64	874.00
513.90	885.00
514.16	906.00
514.42	859.00
514.68	867.00
514.94	884.00
515.20	873.00
515.45	848.00
515.71	844.00
515.97	866.00
516.23	867.00
516.49	841.00
516.75	861.00
517.01	886.00
517.27	869.00
517.53	842.00
517.78	860.00
518.04	871.00
518.30	852.00
518.56	846.00
518.82	873.00
519.08	889.00
519.34	849.00
519.60	843.00
519.85	866.00
520.11	873.00
520.37	877.00
520.63	854.00
520.89	867.00
521.15	873.00
521.41	863.00
521.66	850.00
521.92	860.00
522.18	895.00
522.44	893.00
522.70	859.00
522.96	828.00
523.22	869.00
523.48	866.00
523.73	849.00
523.99	859.00
524.25	904.00
524.51	879.00
524.77	841.00
525.03	839.00
525.29	881.00
525.54	898.00
525.80	859.00
526.06	850.00
526.32	862.00
526.58	866.00
526.84	850.00
527.09	854.00
527.35	853.00
527.61	873.00
527.87	855.00
528.13	873.00
528.39	857.00
528.65	857.00
528.90	813.00
529.16	843.00
529.42	851.00
529.68	844.00
529.94	833.00
530.20	874.00
530.45	852.00
530.71	877.00
530.97	829.00
531.23	854.00
531.49	868.00
531.75	862.00
532.00	842.00
532.26	836.00
532.52	879.00
532.78	876.00
533.04	842.00
533.30	853.00
533.55	864.00
533.81	864.00
534.07	840.00
534.33	845.00
534.59	878.00
534.85	872.00
535.10	833.00
535.36	830.00
535.62	865.00
535.88	863.00
536.14	837.00
536.39	852.00
536.65	889.00
536.91	883.00
537.17	840.00
537.43	859.00
537.69	892.00
537.94	882.00
538.20	836.00
538.46	858.00
538.72	861.00
538.98	867.00
539.23	821.00
539.49	827.00
539.75	874.00
540.01	876.00
540.27	848.00
540.52	882.00
540.78	882.00
541.04	887.00
541.30	839.00
541.56	819.00
541.81	890.00
542.07	945.00
542.33	868.00
542.59	858.00
542.85	866.00
543.10	865.00
543.36	834.00
543.62	855.00
543.88	858.00
544.14	854.00
544.39	848.00
544.65	862.00
544.91	890.00
545.17	874.00
545.43	850.00
545.68	844.00
545.94	879.00
546.20	894.00
546.46	851.00
546.71	858.00
546.97	872.00
547.23	891.00
547.49	842.00
547.75	843.00
548.00	885.00
548.26	895.00
548.52	846.00
548.78	858.00
549.03	849.00
549.29	851.00
549.55	836.00
549.81	852.00
550.07	873.00
550.32	870.00
550.58	834.00
550.84	878.00
551.10	866.00
551.35	869.00
551.61	848.00
551.87	859.00
552.13	876.00
552.39	851.00
552.64	827.00
552.90	862.00
553.16	863.00
553.42	863.00
553.67	824.00
553.93	837.00
554.19	883.00
554.45	902.00
554.70	854.00
554.96	829.00
555.22	866.00
555.48	893.00
555.73	841.00
555.99	853.00
556.25	880.00
556.51	870.00
556.76	849.00
557.02	861.00
557.28	878.00
557.54	864.00
557.79	860.00
558.05	872.00
558.31	854.00
558.57	887.00
558.82	847.00
559.08	841.00
559.34	849.00
559.60	865.00
559.85	836.00
560.11	846.00
560.37	848.00
560.63	850.00
560.88	823.00
561.14	836.00
561.40	892.00
561.66	840.00
561.91	846.00
562.17	851.00
562.43	873.00
562.68	878.00
562.94	865.00
563.20	864.00
563.46	881.00
563.71	903.00
563.97	853.00
564.23	870.00
564.49	884.00
564.74	872.00
565.00	843.00
565.26	849.00
565.51	863.00
565.77	850.00
566.03	834.00
566.29	858.00
566.54	834.00
566.80	855.00
567.06	858.00
567.31	887.00
567.57	883.00
567.83	860.00
568.09	847.00
568.34	862.00
568.60	858.00
568.86	890.00
569.11	872.00
569.37	850.00
569.63	886.00
569.89	882.00
570.14	809.00
570.40	841.00
570.66	857.00
570.91	854.00
571.17	841.00
571.43	869.00
571.69	898.00
571.94	894.00
572.20	852.00
572.46	855.00
572.71	902.00
572.97	878.00
573.23	830.00
573.48	837.00
573.74	861.00
574.00	882.00
574.26	850.00
574.51	867.00
574.77	891.00
575.03	873.00
575.28	853.00
575.54	838.00
575.80	857.00
576.05	875.00
576.31	829.00
576.57	821.00
576.82	871.00
577.08	861.00
577.34	814.00
577.59	845.00
577.85	876.00
578.11	865.00
578.37	844.00
578.62	840.00
578.88	870.00
579.14	904.00
579.39	873.00
579.65	860.00
579.91	863.00
580.16	871.00
580.42	849.00
580.68	858.00
580.93	881.00
581.19	853.00
581.45	829.00
581.70	855.00
581.96	868.00
582.22	887.00
582.47	878.00
582.73	883.00
582.99	896.00
583.24	877.00
583.50	848.00
583.76	853.00
584.01	874.00
584.27	892.00
584.53	866.00
584.78	850.00
585.04	838.00
585.30	866.00
585.55	868.00
585.81	843.00
586.07	876.00
586.32	892.00
586.58	858.00
586.83	855.00
587.09	895.00
587.35	888.00
587.60	839.00
587.86	871.00
588.12	874.00
588.37	901.00
588.63	867.00
588.89	878.00
589.14	886.00
589.40	900.00
589.66	866.00
589.91	873.00
590.17	886.00
590.43	850.00
590.68	842.00
590.94	857.00
591.19	886.00
591.45	880.00
591.71	841.00
591.96	867.00
592.22	893.00
592.48	892.00
592.73	838.00
592.99	857.00
593.25	868.00
593.50	888.00
593.76	860.00
594.01	864.00
594.27	886.00
594.53	883.00
594.78	842.00
595.04	861.00
595.30	879.00
595.55	888.00
595.81	847.00
596.06	870.00
596.32	893.00
596.58	896.00
596.83	863.00
597.09	888.00
597.35	882.00
597.60	885.00
597.86	858.00
598.11	859.00
598.37	887.00
598.63	888.00
598.88	852.00
599.14	876.00
599.39	898.00
599.65	878.00
599.91	837.00
600.16	878.00
600.42	892.00
600.67	913.00
600.93	868.00
601.19	901.00
601.44	933.00
601.70	917.00
601.95	877.00
602.21	899.00
602.47	891.00
602.72	904.00
602.98	877.00
603.23	898.00
603.49	913.00
603.75	911.00
604.00	877.00
604.26	891.00
604.51	887.00
604.77	932.00
605.03	892.00
605.28	885.00
605.54	932.00
605.79	937.00
606.05	888.00
606.31	885.00
606.56	918.00
606.82	931.00
607.07	918.00
607.33	924.00
607.59	943.00
607.84	924.00
608.10	916.00
608.35	949.00
608.61	963.00
608.86	966.00
609.12	933.00
609.38	957.00
609.63	990.00
609.89	950.00
610.14	903.00
610.40	920.00
610.65	951.00
610.91	963.00
611.17	938.00
611.42	954.00
611.68	1001.00
611.93	995.00
612.19	983.00
612.44	998.00
612.70	1021.00
612.96	1004.00
613.21	974.00
613.47	972.00
613.72	1013.00
613.98	1058.00
614.23	1022.00
614.49	1037.00
614.75	1036.00
615.00	1017.00
615.26	1009.00
615.51	1027.00
615.77	1083.00
616.02	1100.00
616.28	1069.00
616.53	1090.00
616.79	1102.00
617.05	1091.00
617.30	1071.00
617.56	1114.00
617.81	1162.00
618.07	1144.00
618.32	1144.00
618.58	1199.00
618.83	1241.00
619.09	1253.00
619.34	1236.00
619.60	1233.00
619.86	1242.00
620.11	1292.00
620.37	1290.00
620.62	1338.00
620.88	1336.00
621.13	1331.00
621.39	1332.00
621.64	1357.00
621.90	1435.00
622.15	1498.00
622.41	1515.00
622.66	1572.00
622.92	1545.00
623.18	1527.00
623.43	1491.00
623.69	1537.00
623.94	1599.00
624.20	1591.00
624.45	1679.00
624.71	1812.00
624.96	1827.00
625.22	1827.00
625.47	1829.00
625.73	1927.00
625.98	2036.00
626.24	2129.00
626.49	2193.00
626.75	2305.00
627.00	2349.00
627.26	2497.00
627.51	2668.00
627.77	2752.00
628.02	2807.00
628.28	2777.00
628.53	2861.00
628.79	3158.00
629.05	3432.00
629.30	3771.00
629.56	4016.00
629.81	3782.00
630.07	3714.00
630.32	3901.00
630.58	3863.00
630.83	4002.00
631.09	4382.00
631.34	4497.00
631.60	4553.00
631.85	4889.00
632.11	4909.00
632.36	4993.00
632.62	5518.00
632.87	5874.00
633.13	6193.00
633.38	6223.00
633.64	5824.00
633.89	6019.00
634.15	6415.00
634.40	6769.00
634.66	6830.00
634.91	7165.00
635.17	7530.00
635.42	7775.00
635.68	7443.00
635.93	6987.00
636.18	6475.00
636.44	6438.00
636.69	5991.00
636.95	5640.00
637.20	5698.00
637.46	5689.00
637.71	5545.00
637.97	5415.00
638.22	5449.00
638.48	5281.00
638.73	5162.00
638.99	5095.00
639.24	4921.00
639.50	4331.00
639.75	3894.00
640.01	3621.00
640.26	3524.00
640.52	3402.00
640.77	3307.00
641.03	3238.00
641.28	3238.00
641.54	3204.00
641.79	3082.00
642.04	2811.00
642.30	2517.00
642.55	2422.00
642.81	2273.00
643.06	2203.00
643.32	2072.00
643.57	1984.00
643.83	1956.00
644.08	1947.00
644.34	1953.00
644.59	1945.00
644.85	1833.00
645.10	1723.00
645.35	1595.00
645.61	1472.00
645.86	1379.00
646.12	1379.00
646.37	1411.00
646.63	1401.00
646.88	1354.00
647.14	1372.00
647.39	1332.00
647.65	1264.00
647.90	1206.00
648.15	1245.00
648.41	1250.00
648.66	1182.00
648.92	1132.00
649.17	1126.00
649.43	1118.00
649.68	1102.00
649.94	1084.00
650.19	1096.00
650.44	1091.00
650.70	1090.00
650.95	1048.00
651.21	1069.00
651.46	1088.00
651.72	1060.00
651.97	1025.00
652.23	1011.00
652.48	1001.00
652.73	1013.00
652.99	987.00
653.24	970.00
653.50	982.00
653.75	974.00
654.01	952.00
654.26	960.00
654.51	959.00
654.77	986.00
655.02	947.00
655.28	927.00
655.53	945.00
655.79	951.00
656.04	924.00
656.29	915.00
656.55	910.00
656.80	943.00
657.06	913.00
657.31	908.00
657.56	908.00
657.82	887.00
658.07	873.00
658.33	902.00
658.58	906.00
658.84	944.00
659.09	901.00
659.34	903.00
659.60	903.00
659.85	886.00
660.11	873.00
660.36	891.00
660.61	903.00
660.87	876.00
661.12	848.00
661.38	878.00
661.63	891.00
661.88	889.00
662.14	891.00
662.39	892.00
662.65	924.00
662.90	922.00
663.15	866.00
663.41	883.00
663.66	914.00
663.92	915.00
664.17	870.00
664.42	893.00
664.68	907.00
664.93	901.00
665.19	864.00
665.44	858.00
665.69	849.00
665.95	881.00
666.20	844.00
666.45	868.00
666.71	887.00
666.96	897.00
667.22	813.00
667.47	845.00
667.72	869.00
667.98	883.00
668.23	849.00
668.49	907.00
668.74	917.00
668.99	895.00
669.25	857.00
669.50	853.00
669.75	873.00
670.01	897.00
670.26	853.00
670.52	848.00
670.77	874.00
671.02	875.00
671.28	843.00
671.53	861.00
671.78	881.00
672.04	881.00
672.29	852.00
672.54	848.00
672.80	877.00
673.05	884.00
673.31	839.00
673.56	873.00
673.81	897.00
674.07	882.00
674.32	860.00
674.57	848.00
674.83	865.00
675.08	873.00
675.33	839.00
675.59	852.00
675.84	888.00
676.09	867.00
676.35	854.00
676.60	872.00
676.86	871.00
677.11	909.00
677.36	859.00
677.62	867.00
677.87	892.00
678.12	914.00
678.38	840.00
678.63	854.00
678.88	887.00
679.14	906.00
679.39	838.00
679.64	877.00
679.90	876.00
680.15	887.00
680.40	868.00
680.66	832.00
680.91	860.00
681.16	873.00
681.42	835.00
681.67	829.00
681.92	845.00
682.18	891.00
682.43	851.00
682.68	836.00
682.94	866.00
683.19	846.00
683.44	834.00
683.70	860.00
683.95	879.00
684.20	859.00
684.46	856.00
684.71	856.00
684.96	868.00
685.22	890.00
685.47	863.00
685.72	859.00
685.98	874.00
686.23	833.00
686.48	825.00
686.74	881.00
686.99	903.00
687.24	880.00
687.50	837.00
687.75	840.00
688.00	866.00
688.25	869.00
688.51	852.00
688.76	881.00
689.01	862.00
689.27	866.00
689.52	818.00
689.77	838.00
690.03	860.00
690.28	854.00
690.53	837.00
690.79	860.00
691.04	867.00
691.29	874.00
691.54	827.00
691.80	842.00
692.05	858.00
692.30	863.00
692.56	844.00
692.81	864.00
693.06	856.00
693.32	842.00
693.57	829.00
693.82	865.00
694.07	882.00
694.33	875.00
694.58	837.00
694.83	875.00
695.09	868.00
695.34	875.00
695.59	843.00
695.84	851.00
696.10	866.00
696.35	870.00
696.60	810.00
696.86	848.00
697.11	863.00
697.36	869.00
697.61	826.00
697.87	852.00
698.12	858.00
698.37	874.00
698.63	872.00
698.88	864.00
699.13	871.00
699.38	859.00
699.64	839.00
699.89	859.00
700.14	838.00
700.39	845.00
700.65	833.00
700.90	876.00
701.15	861.00
701.40	873.00
701.66	830.00
701.91	852.00
702.16	858.00
702.42	853.00
702.67	835.00
702.92	842.00
703.17	859.00
703.43	862.00
703.68	848.00
703.93	883.00
704.18	900.00
704.44	856.00
704.69	841.00
704.94	869.00
705.19	845.00
705.45	865.00
705.70	833.00
705.95	841.00
706.20	857.00
706.46	877.00
706.71	843.00
706.96	842.00
707.21	864.00
707.47	872.00
707.72	851.00
707.97	848.00
708.22	869.00
708.48	885.00
708.73	851.00
708.98	838.00
709.23	870.00
709.49	856.00
709.74	845.00
709.99	851.00
710.24	858.00
710.50	867.00
710.75	868.00
711.00	866.00
711.25	877.00
711.50	867.00
711.76	841.00
712.01	838.00
712.26	841.00
712.51	856.00
712.77	845.00
713.02	859.00
713.27	848.00
713.52	864.00
713.78	845.00
714.03	868.00
714.28	857.00
714.53	866.00
714.78	837.00
715.04	872.00
715.29	858.00
715.54	872.00
715.79	824.00
716.05	856.00
716.30	870.00
716.55	874.00
716.80	844.00
717.05	860.00
717.31	877.00
717.56	861.00
717.81	837.00
718.06	822.00
718.31	840.00
718.57	868.00
718.82	838.00
719.07	874.00
719.32	854.00
719.57	870.00
719.83	835.00
720.08	877.00
720.33	867.00
720.58	844.00
720.83	812.00
721.09	880.00
721.34	862.00
721.59	877.00
721.84	820.00
722.09	842.00
722.35	876.00
722.60	862.00
722.85	816.00
723.10	850.00
723.35	848.00
723.61	872.00
723.86	857.00
724.11	854.00
724.36	858.00
724.61	847.00
724.87	848.00
725.12	846.00
725.37	855.00
725.62	846.00
725.87	837.00
726.12	841.00
726.38	850.00
726.63	852.00
726.88	839.00
727.13	853.00
727.38	849.00
727.64	853.00
727.89	834.00
728.14	840.00
728.39	830.00
728.64	841.00
728.89	850.00
729.15	876.00
729.40	861.00
729.65	882.00
729.90	840.00
730.15	869.00
730.40	876.00
730.66	864.00
730.91	818.00
731.16	846.00
731.41	855.00
731.66	857.00
731.91	829.00
732.17	868.00
732.42	874.00
732.67	848.00
732.92	825.00
733.17	862.00
733.42	865.00
733.68	865.00
733.93	822.00
734.18	839.00
734.43	836.00
734.68	844.00
734.93	839.00
735.18	869.00
735.44	878.00
735.69	863.00
735.94	820.00
736.19	851.00
736.44	850.00
736.69	894.00
736.95	827.00
737.20	869.00
737.45	880.00
737.70	853.00
737.95	839.00
738.20	860.00
738.45	878.00
738.70	863.00
738.96	842.00
739.21	862.00
739.46	869.00
739.71	888.00
739.96	856.00
740.21	860.00
740.46	914.00
740.72	902.00
740.97	837.00
741.22	862.00
741.47	848.00
741.72	882.00
741.97	845.00
742.22	859.00
742.47	860.00
742.73	854.00
742.98	840.00
743.23	849.00
743.48	839.00
743.73	868.00
743.98	852.00
744.23	840.00
744.48	859.00
744.74	840.00
744.99	814.00
745.24	865.00
745.49	848.00
745.74	871.00
745.99	848.00
746.24	856.00
746.49	840.00
746.74	860.00
747.00	845.00
747.25	837.00
747.50	828.00
747.75	838.00
748.00	806.00
748.25	837.00
748.50	842.00
748.75	876.00
749.00	878.00
749.26	885.00
749.51	865.00
749.76	868.00
750.01	831.00
750.26	866.00
750.51	872.00
750.76	873.00
751.01	841.00
751.26	836.00
751.51	859.00
751.77	866.00
752.02	841.00
752.27	844.00
752.52	850.00
752.77	866.00
753.02	845.00
753.27	857.00
753.52	857.00
753.77	840.00
754.02	823.00
754.27	872.00
754.52	842.00
754.78	849.00
755.03	827.00
755.28	848.00
755.53	866.00
755.78	848.00
756.03	826.00
756.28	850.00
756.53	874.00
756.78	874.00
757.03	848.00
757.28	858.00
757.53	881.00
757.79	854.00
758.04	826.00
758.29	875.00
758.54	884.00
758.79	862.00
759.04	820.00
759.29	832.00
759.54	839.00
759.79	878.00
760.04	859.00
760.29	848.00
760.54	848.00
760.79	852.00
761.04	832.00
761.29	858.00
761.55	850.00
761.80	861.00
762.05	835.00
762.30	856.00
762.55	857.00
762.80	876.00
763.05	865.00
763.30	864.00
763.55	889.00
763.80	870.00
764.05	826.00
764.30	851.00
764.55	878.00
764.80	858.00
765.05	843.00
765.30	863.00
765.55	857.00
765.80	860.00
766.05	831.00
766.30	851.00
766.56	838.00
766.81	852.00
767.06	847.00
767.31	858.00
767.56	848.00
767.81	860.00
768.06	838.00
768.31	863.00
768.56	849.00
768.81	890.00
769.06	832.00
769.31	855.00
769.56	856.00
769.81	870.00
770.06	822.00
770.31	836.00
770.56	850.00
770.81	848.00
771.06	821.00
771.31	859.00
771.56	858.00
771.81	876.00
772.06	836.00
772.31	879.00
772.56	881.00
772.81	868.00
773.06	835.00
773.31	863.00
773.56	851.00
773.81	839.00
774.06	832.00
774.31	850.00
774.56	859.00
774.81	870.00
775.06	855.00
775.31	868.00
775.56	873.00
775.81	866.00
776.06	842.00
776.31	846.00
776.56	840.00
776.82	853.00
777.07	818.00
777.32	827.00
777.57	846.00
777.82	892.00
778.07	843.00
778.32	825.00
778.57	861.00
778.82	890.00
779.07	849.00
779.32	841.00
779.57	829.00
779.82	866.00
780.07	842.00
780.32	853.00
780.56	847.00
780.81	876.00
781.06	840.00
781.31	854.00
781.56	879.00
781.81	868.00
782.06	835.00
782.31	871.00
782.56	841.00
782.81	882.00
783.06	836.00
783.31	860.00
783.56	845.00
783.81	880.00
784.06	843.00
784.31	862.00
784.56	853.00
784.81	904.00
785.06	869.00
785.31	864.00
785.56	812.00
785.81	842.00
786.06	812.00
786.31	842.00
786.56	838.00
786.81	873.00
787.06	869.00
787.31	874.00
787.56	851.00
787.81	831.00
788.06	833.00
788.31	866.00
788.56	842.00
788.81	862.00
789.06	826.00
789.31	860.00
789.56	852.00
789.81	852.00
790.06	829.00
790.31	885.00
790.56	852.00
790.80	860.00
791.05	838.00
791.30	832.00
791.55	833.00
791.80	858.00
792.05	832.00
792.30	831.00
792.55	845.00
792.80	867.00
793.05	827.00
793.30	833.00
793.55	854.00
793.80	869.00
794.05	827.00
794.30	845.00
794.55	864.00
794.80	862.00
795.05	801.00
795.30	829.00
795.54	836.00
795.79	875.00
796.04	839.00
796.29	859.00
796.54	859.00
796.79	873.00
797.04	844.00
797.29	832.00
797.54	865.00
797.79	870.00
798.04	850.00
798.29	837.00
798.54	839.00
798.79	838.00
799.04	828.00
799.29	853.00
799.53	847.00
799.78	852.00
800.03	834.00
800.28	833.00
800.53	840.00
800.78	885.00
801.03	840.00
801.28	860.00
801.53	859.00
801.78	882.00
802.03	851.00
802.28	857.00
802.52	873.00
802.77	880.00
803.02	868.00
803.27	855.00
803.52	835.00
803.77	872.00
804.02	868.00
804.27	877.00
804.52	859.00
804.77	868.00
805.02	844.00
805.27	851.00
805.51	850.00
805.76	890.00
806.01	852.00
806.26	858.00
806.51	840.00
806.76	885.00
807.01	864.00
807.26	833.00
807.51	868.00
807.76	847.00
808.00	826.00
808.25	848.00
808.50	871.00
808.75	847.00
809.00	831.00
809.25	856.00
809.50	862.00
809.75	884.00
810.00	850.00
810.24	848.00
810.49	818.00
810.74	826.00
810.99	827.00
811.24	844.00
811.49	861.00
811.74	868.00
811.99	809.00
812.24	848.00
812.48	842.00
812.73	822.00
812.98	806.00
813.23	826.00
813.48	852.00
813.73	852.00
813.98	801.00
814.23	840.00
814.47	840.00
814.72	846.00
814.97	830.00
815.22	860.00
815.47	833.00
815.72	840.00
815.97	826.00
816.22	857.00
816.46	851.00
816.71	882.00
816.96	862.00
817.21	862.00
817.46	838.00
817.71	873.00
817.96	844.00
818.20	842.00
818.45	837.00
818.70	834.00
818.95	799.00
819.20	841.00
819.45	857.00
819.70	861.00
819.94	837.00
820.19	861.00
820.44	850.00
820.69	871.00
820.94	844.00
821.19	862.00
821.44	908.00
821.68	924.00
821.93	861.00
822.18	873.00
822.43	874.00
822.68	880.00
822.93	855.00
823.17	858.00
823.42	861.00
823.67	848.00
823.92	833.00
824.17	840.00
824.42	849.00
824.67	875.00
824.91	848.00
825.16	841.00
825.41	844.00
825.66	840.00
825.91	823.00
826.16	839.00
826.40	866.00
826.65	876.00
826.90	845.00
827.15	853.00
827.40	870.00
827.65	885.00
827.89	807.00
828.14	845.00
828.39	840.00
828.64	852.00
828.89	816.00
829.13	852.00
829.38	848.00
829.63	856.00
829.88	822.00
830.13	820.00
830.38	827.00
830.62	849.00
830.87	822.00
831.12	855.00
831.37	886.00
831.62	890.00
831.86	838.00
832.11	851.00
832.36	849.00
832.61	903.00
832.86	859.00
833.10	870.00
833.35	861.00
833.60	869.00
833.85	841.00
834.10	864.00
834.35	877.00
834.59	885.00
834.84	853.00
835.09	867.00
835.34	832.00
835.59	852.00
835.83	839.00
836.08	849.00
836.33	852.00
836.58	866.00
836.83	843.00
837.07	871.00
837.32	866.00
837.57	866.00
837.82	833.00
838.06	853.00
838.31	878.00
838.56	885.00
838.81	827.00
839.06	868.00
839.30	854.00
839.55	881.00
839.80	827.00
840.05	846.00
840.30	874.00
840.54	874.00
840.79	831.00
841.04	852.00
841.29	856.00
841.53	858.00
841.78	834.00
842.03	835.00
842.28	831.00
842.53	846.00
842.77	857.00
843.02	858.00
843.27	845.00
843.52	860.00
843.76	833.00
844.01	870.00
844.26	850.00
844.51	868.00
844.75	843.00
845.00	841.00
845.25	856.00
845.50	875.00
845.75	830.00
845.99	838.00
846.24	870.00
846.49	878.00
846.74	816.00
846.98	822.00
847.23	832.00
847.48	852.00
847.73	828.00
847.97	839.00
848.22	866.00
848.47	883.00
848.72	833.00
848.96	834.00
849.21	857.00
849.46	864.00
849.71	841.00
849.95	849.00
850.20	840.00
850.45	861.00
850.70	816.00
850.94	851.00
851.19	861.00
851.44	836.00
851.69	821.00
851.93	845.00
852.18	871.00
852.43	878.00
852.68	863.00
852.92	870.00
853.17	893.00
853.42	875.00
853.66	839.00
853.91	874.00
854.16	848.00
854.41	887.00
854.65	829.00
854.90	839.00
855.15	849.00
855.40	862.00
855.64	855.00
855.89	851.00
856.14	869.00
856.39	859.00
856.63	824.00
856.88	844.00
857.13	842.00
857.37	847.00
857.62	821.00
857.87	820.00
858.12	843.00
858.36	880.00
858.61	812.00
858.86	852.00
859.10	877.00
859.35	862.00
859.60	822.00
859.85	825.00
860.09	828.00
860.34	861.00
860.59	859.00
860.83	856.00
861.08	859.00
861.33	881.00
861.58	840.00
861.82	860.00
862.07	868.00
862.32	848.00
862.56	835.00
862.81	841.00
863.06	847.00
863.30	842.00
863.55	842.00
863.80	866.00
864.05	867.00
864.29	846.00
864.54	849.00
864.79	864.00
865.03	862.00
865.28	884.00
865.53	861.00
865.77	834.00
866.02	853.00
866.27	884.00
866.51	856.00
866.76	830.00
867.01	833.00
867.26	862.00
867.50	842.00
867.75	834.00
868.00	859.00
868.24	868.00
868.49	827.00
868.74	832.00
868.98	844.00
869.23	865.00
869.48	843.00
869.72	828.00
869.97	834.00
870.22	875.00
870.46	848.00
870.71	859.00
870.96	862.00
871.20	877.00
871.45	830.00
871.70	834.00
871.94	863.00
872.19	880.00
872.44	853.00
872.68	859.00
872.93	834.00
873.18	849.00
873.42	830.00
873.67	849.00
873.92	870.00
874.16	860.00
874.41	856.00
874.66	864.00
874.90	865.00
875.15	890.00
875.40	864.00
875.64	861.00
875.89	855.00
876.14	853.00
876.38	850.00
876.63	854.00
876.88	854.00
877.12	854.00
877.37	822.00
877.62	860.00
877.86	855.00
878.11	870.00
878.36	840.00
878.60	844.00
878.85	842.00
879.09	864.00
879.34	848.00
879.59	863.00
879.83	875.00
880.08	885.00
880.33	856.00
880.57	871.00
880.82	859.00
881.07	852.00
881.31	840.00
881.56	844.00
881.80	836.00
882.05	858.00
882.30	834.00
882.54	849.00
882.79	879.00
883.04	914.00
883.28	869.00
883.53	833.00
883.77	877.00
884.02	887.00
884.27	838.00
884.51	830.00
884.76	848.00
885.01	879.00
885.25	840.00
885.50	859.00
885.74	840.00
885.99	889.00
886.24	847.00
886.48	841.00
886.73	858.00
886.98	889.00
887.22	844.00
887.47	851.00
887.71	852.00
887.96	868.00
888.21	859.00
888.45	839.00
888.70	844.00
888.94	875.00
889.19	842.00
889.44	849.00
889.68	859.00
889.93	882.00
890.17	831.00
890.42	828.00
890.67	887.00
890.91	938.00
891.16	834.00
891.40	840.00
891.65	852.00
891.90	875.00
892.14	811.00
892.39	848.00
892.63	851.00
892.88	880.00
893.13	853.00
893.37	851.00
893.62	852.00
893.86	884.00
894.11	845.00
894.36	836.00
894.60	843.00
894.85	840.00
895.09	843.00
895.34	873.00
895.59	865.00
895.83	873.00
896.08	826.00
896.32	832.00
896.57	855.00
896.81	871.00
897.06	838.00
897.31	849.00
897.55	870.00
897.80	849.00
898.04	808.00
898.29	839.00
898.53	847.00
898.78	880.00
899.03	856.00
899.27	848.00
899.52	862.00
899.76	881.00
900.01	830.00
900.25	848.00
900.50	861.00
900.75	861.00
900.99	824.00
901.24	899.00
901.48	851.00
901.73	865.00
901.97	841.00
902.22	865.00
902.47	856.00
902.71	845.00
902.96	828.00
903.20	851.00
903.45	870.00
903.69	861.00
903.94	845.00
904.18	827.00
904.43	843.00
904.68	853.00
904.92	820.00
905.17	832.00
905.41	851.00
905.66	878.00
905.90	865.00
906.15	844.00
906.39	860.00
906.64	862.00
906.88	826.00
907.13	840.00
907.38	865.00
907.62	887.00
907.87	832.00
908.11	861.00
908.36	830.00
908.60	837.00
908.85	806.00
909.09	835.00
909.34	840.00
909.58	862.00
909.83	821.00
910.07	837.00
910.32	887.00
910.56	891.00
910.81	830.00
911.06	853.00
911.30	861.00
911.55	854.00
911.79	820.00
912.04	835.00
912.28	841.00
912.53	880.00
912.77	864.00
913.02	854.00
913.26	842.00
913.51	838.00
913.75	837.00
914.00	846.00
914.24	862.00
914.49	864.00
914.73	834.00
914.98	866.00
915.22	878.00
915.47	857.00
915.71	833.00
915.96	849.00
916.20	852.00
916.45	863.00
916.69	838.00
916.94	842.00
917.18	846.00
917.43	874.00
917.67	835.00
917.92	826.00
918.16	863.00
918.41	870.00
918.65	839.00
918.90	841.00
919.14	829.00
919.39	864.00
919.63	837.00
919.88	816.00
920.12	856.00
920.37	866.00
920.61	824.00
920.86	852.00
921.10	870.00
921.35	853.00
921.59	813.00
921.84	836.00
922.08	867.00
922.33	870.00
922.57	832.00
922.82	824.00
923.06	852.00
923.31	872.00
923.55	801.00
923.80	833.00
924.04	847.00
924.29	869.00
924.53	828.00
924.78	848.00
925.02	830.00
925.27	851.00
925.51	831.00
925.76	880.00
926.00	867.00
926.25	851.00
926.49	830.00
926.73	844.00
926.98	853.00
927.22	877.00
927.47	860.00
927.71	841.00
927.96	869.00
928.20	868.00
928.45	860.00
928.69	889.00
928.94	870.00
929.18	852.00
929.43	846.00
929.67	854.00
929.91	850.00
930.16	843.00
930.40	813.00
930.65	836.00
930.89	867.00
931.14	879.00
931.38	853.00
931.63	862.00
931.87	866.00
932.12	880.00
932.36	830.00
932.60	822.00
932.85	857.00
933.09	848.00
933.34	834.00
933.58	857.00
933.83	849.00
934.07	870.00
934.32	851.00
934.56	852.00
934.80	894.00
935.05	893.00
935.29	851.00
935.54	839.00
935.78	869.00
936.03	877.00
936.27	836.00
936.52	833.00
936.76	844.00
937.00	861.00
937.25	854.00
937.49	856.00
937.74	867.00
937.98	888.00
938.23	834.00
938.47	845.00
938.71	854.00
938.96	844.00
939.20	812.00
939.45	816.00
939.69	857.00
939.94	881.00
940.18	825.00
940.42	845.00
940.67	861.00
940.91	856.00
941.16	834.00
941.40	820.00
941.64	833.00
941.89	872.00
942.13	840.00
942.38	853.00
942.62	916.00
942.87	881.00
943.11	874.00
943.35	840.00
943.60	866.00
943.84	892.00
944.09	838.00
944.33	858.00
944.57	893.00
944.82	864.00
945.06	830.00
945.31	849.00
945.55	842.00
945.79	873.00
946.04	838.00
946.28	843.00
946.53	851.00
946.77	866.00
947.01	822.00
947.26	858.00
947.50	837.00
947.75	860.00
947.99	842.00
948.23	850.00
948.48	850.00
948.72	858.00
948.97	854.00
949.21	847.00
949.45	851.00
949.70	885.00
949.94	846.00
950.18	845.00
950.43	856.00
950.67	851.00
950.92	830.00
951.16	828.00
951.40	844.00
951.65	855.00
951.89	848.00
952.13	860.00
952.38	858.00
952.62	861.00
952.87	828.00
953.11	869.00
953.35	875.00
953.60	876.00
953.84	799.00
954.08	809.00
954.33	833.00
954.57	865.00
954.82	844.00
955.06	830.00
955.30	840.00
955.55	864.00
955.79	845.00
956.03	834.00
956.28	841.00
956.52	837.00
956.76	840.00
957.01	868.00
957.25	850.00
957.50	851.00
957.74	836.00
957.98	843.00
958.23	861.00
958.47	857.00
958.71	849.00
958.96	875.00
959.20	880.00
959.44	876.00
959.69	831.00
959.93	847.00
960.17	863.00
960.42	871.00
960.66	858.00
960.90	862.00
961.15	860.00
961.39	866.00
961.64	827.00
961.88	812.00
962.12	851.00
962.37	867.00
962.61	838.00
962.85	845.00
963.10	866.00
963.34	851.00
963.58	824.00
963.83	840.00
964.07	874.00
964.31	874.00
964.56	854.00
964.80	848.00
965.04	856.00
965.29	861.00
965.53	833.00
965.77	839.00
966.02	816.00
966.26	841.00
966.50	804.00
966.74	832.00
966.99	859.00
967.23	856.00
967.47	849.00
967.72	853.00
967.96	864.00
968.20	847.00
968.45	835.00
968.69	843.00
968.93	844.00
969.18	852.00
969.42	855.00
969.66	861.00
969.91	851.00
970.15	875.00
970.39	834.00
970.64	845.00
970.88	866.00
971.12	866.00
971.36	844.00
971.61	834.00
971.85	854.00
972.09	853.00
972.34	827.00
972.58	838.00
972.82	867.00
973.07	880.00
973.31	825.00
973.55	838.00
973.79	870.00
974.04	892.00
974.28	856.00
974.52	851.00
974.77	842.00
975.01	879.00
975.25	854.00
975.50	843.00
975.74	872.00
975.98	874.00
976.22	851.00
976.47	840.00
976.71	858.00
976.95	865.00
977.20	851.00
977.44	849.00
977.68	849.00
977.92	867.00
978.17	840.00
978.41	852.00
978.65	874.00
978.90	848.00
979.14	836.00
979.38	857.00
979.62	854.00
979.87	845.00
980.11	821.00
980.35	840.00
980.59	872.00
980.84	872.00
981.08	850.00
981.32	851.00
981.57	864.00
981.81	854.00
982.05	843.00
982.29	848.00
982.54	859.00
982.78	866.00
983.02	822.00
983.26	845.00
983.51	881.00
983.75	875.00
983.99	852.00
984.23	854.00
984.48	862.00
984.72	899.00
984.96	837.00
985.20	853.00
985.45	896.00
985.69	872.00
985.93	852.00
986.17	866.00
986.42	865.00
986.66	850.00
986.90	811.00
987.14	828.00
987.39	853.00
987.63	838.00
987.87	820.00
988.11	833.00
988.36	859.00
988.60	868.00
988.84	855.00
989.08	821.00
989.33	874.00
989.57	869.00
989.81	819.00
990.05	830.00
990.30	877.00
990.54	861.00
990.78	844.00
991.02	836.00
991.27	841.00
991.51	842.00
991.75	832.00
991.99	844.00
992.23	841.00
992.48	838.00
992.72	832.00
992.96	837.00
993.20	853.00
993.45	863.00
993.69	869.00
993.93	839.00
994.17	859.00
994.41	866.00
994.66	824.00
994.90	843.00
995.14	869.00
995.38	844.00
995.63	832.00
995.87	828.00
996.11	885.00
996.35	882.00
996.59	825.00
996.84	832.00
997.08	848.00
997.32	866.00
997.56	848.00
997.80	836.00
998.05	844.00
998.29	846.00
998.53	830.00
998.77	860.00
999.01	876.00
999.26	865.00
999.50	837.00
999.74	829.00
999.98	857.00
1000.22	857.00
1000.47	820.00
1000.71	832.00
1000.95	870.00
1001.19	867.00
1001.43	845.00
1001.68	852.00
1001.92	843.00
1002.16	842.00
1002.40	822.00
1002.64	849.00
1002.89	860.00
1003.13	869.00
1003.37	845.00
1003.61	828.00
1003.85	845.00
1004.10	858.00
1004.34	824.00
1004.58	842.00
1004.82	877.00
1005.06	857.00
1005.30	844.00
1005.55	844.00
1005.79	862.00
1006.03	878.00
1006.27	843.00
1006.51	822.00
1006.76	849.00
1007.00	878.00
1007.24	844.00
1007.48	847.00
1007.72	887.00
1007.96	863.00
1008.21	836.00
1008.45	855.00
1008.69	857.00
1008.93	885.00
1009.17	852.00
1009.41	872.00
1009.66	877.00
1009.90	857.00
1010.14	826.00
1010.38	863.00
1010.62	875.00
1010.86	867.00
1011.10	841.00
1011.35	848.00
1011.59	852.00
1011.83	851.00
1012.07	822.00
1012.31	855.00
1012.55	848.00
1012.80	864.00
1013.04	851.00
1013.28	847.00
1013.52	855.00
1013.76	876.00
1014.00	820.00
1014.24	847.00
1014.49	877.00
1014.73	913.00
1014.97	876.00
1015.21	864.00
1015.45	889.00
1015.69	879.00
1015.93	860.00
1016.18	843.00
1016.42	894.00
1016.66	874.00
1016.90	829.00
1017.14	833.00
1017.38	846.00
1017.62	851.00
1017.87	831.00
1018.11	848.00
1018.35	850.00
1018.59	873.00
1018.83	823.00
1019.07	853.00
1019.31	879.00
1019.55	878.00
1019.80	829.00
1020.04	858.00
1020.28	863.00
1020.52	869.00
1020.76	829.00
1021.00	825.00
1021.24	841.00
1021.48	830.00
1021.73	837.00
1021.97	847.00
1022.21	854.00
1022.45	865.00
1022.69	821.00
1022.93	829.00
1023.17	867.00
1023.41	901.00
1023.65	842.00
1023.90	876.00
1024.14	886.00
1024.38	848.00
1024.62	810.00
1024.86	844.00
1025.10	869.00
1025.34	845.00
1025.58	824.00
1025.82	842.00
1026.07	881.00
1026.31	874.00
1026.55	837.00
1026.79	835.00
1027.03	849.00
1027.27	872.00
1027.51	828.00
1027.75	826.00
1027.99	843.00
1028.23	881.00
1028.47	865.00
1028.72	840.00
1028.96	862.00
1029.20	858.00
1029.44	842.00
1029.68	828.00
1029.92	866.00
1030.16	893.00
1030.40	822.00
1030.64	823.00
1030.88	817.00
1031.12	853.00
1031.37	817.00
1031.61	838.00
1031.85	867.00
1032.09	884.00
1032.33	833.00
1032.57	873.00
1032.81	843.00
1033.05	862.00
1033.29	857.00
1033.53	845.00
1033.77	898.00
1034.01	886.00
1034.25	858.00
1034.50	858.00
1034.74	849.00
1034.98	872.00
1035.22	848.00
1035.46	858.00
1035.70	890.00
1035.94	882.00
1036.18	859.00
1036.42	843.00
1036.66	851.00
1036.90	855.00
1037.14	837.00
1037.38	844.00
1037.62	881.00
1037.86	850.00
1038.10	840.00
1038.35	850.00
1038.59	877.00
1038.83	878.00
1039.07	858.00
1039.31	859.00
1039.55	847.00
1039.79	866.00
1040.03	818.00
1040.27	824.00
1040.51	868.00
1040.75	877.00
1040.99	832.00
1041.23	846.00
1041.47	853.00
1041.71	876.00
1041.95	834.00
1042.19	832.00
1042.43	877.00
1042.67	886.00
1042.91	858.00
1043.15	846.00
1043.39	894.00
1043.64	851.00
1043.88	840.00
1044.12	857.00
1044.36	913.00
1044.60	900.00
1044.84	850.00
1045.08	861.00
1045.32	871.00
1045.56	860.00
1045.80	856.00
1046.04	836.00
1046.28	874.00
1046.52	878.00
1046.76	814.00
1047.00	850.00
1047.24	875.00
1047.48	852.00
1047.72	843.00
1047.96	846.00
1048.20	862.00
1048.44	852.00
1048.68	805.00
1048.92	833.00
1049.16	859.00
1049.40	865.00
1049.64	843.00
1049.88	850.00
1050.12	878.00
1050.36	885.00
1050.60	854.00
1050.84	856.00
1051.08	859.00
1051.32	862.00
1051.56	842.00
1051.80	833.00
1052.04	846.00
1052.28	880.00
1052.52	841.00
1052.76	817.00
1053.00	849.00
1053.24	867.00
1053.48	834.00
1053.72	834.00
1053.96	852.00
1054.20	846.00
1054.44	833.00
1054.68	859.00
1054.92	858.00
1055.16	827.00
1055.40	829.00
1055.64	841.00
1055.88	872.00
1056.12	888.00
1056.36	813.00
1056.60	835.00
1056.84	863.00
1057.08	867.00
1057.32	842.00
1057.56	840.00
1057.80	862.00
1058.04	874.00
1058.28	842.00
1058.52	841.00
1058.76	892.00
1059.00	886.00
1059.24	817.00
1059.48	824.00
1059.72	867.00
1059.96	845.00
1060.20	838.00
1060.44	851.00
1060.68	888.00
1060.92	873.00
1061.16	809.00
1061.40	845.00
1061.64	873.00
1061.88	861.00
1062.11	837.00
1062.35	832.00
1062.59	856.00
1062.83	880.00
1063.07	853.00
1063.31	829.00
1063.55	850.00
1063.79	877.00
1064.03	856.00
1064.27	827.00
1064.51	850.00
1064.75	883.00
1064.99	857.00
1065.23	856.00
1065.47	853.00
1065.71	873.00
1065.95	850.00
1066.19	852.00
1066.43	862.00
1066.67	861.00
1066.91	870.00
1067.15	848.00
1067.38	849.00
1067.62	866.00
1067.86	828.00
1068.10	856.00
1068.34	900.00
1068.58	896.00
1068.82	849.00
1069.06	825.00
1069.30	851.00
1069.54	876.00
1069.78	876.00
1070.02	846.00
1070.26	877.00
1070.50	907.00
1070.74	857.00
1070.98	870.00
1071.21	862.00
1071.45	841.00
1071.69	817.00
1071.93	843.00
1072.17	862.00
1072.41	874.00
1072.65	862.00
1072.89	870.00
1073.13	859.00
1073.37	865.00
1073.61	825.00
1073.85	847.00
1074.09	833.00
1074.32	844.00
1074.56	832.00
1074.80	915.00
1075.04	1106.00
1075.28	948.00
1075.52	840.00
1075.76	849.00
1076.00	860.00
1076.24	864.00
1076.48	869.00
1076.72	858.00
1076.96	870.00
1077.19	869.00
1077.43	825.00
1077.67	849.00
1077.91	868.00
1078.15	853.00
1078.39	831.00
1078.63	848.00
1078.87	857.00
1079.11	860.00
1079.35	830.00
1079.58	836.00
1079.82	849.00
1080.06	846.00
1080.30	826.00
1080.54	856.00
1080.78	890.00
1081.02	866.00
1081.26	858.00
1081.50	866.00
1081.74	864.00
1081.97	870.00
1082.21	825.00
1082.45	863.00
1082.69	844.00
1082.93	835.00
1083.17	852.00
1083.41	852.00
1083.65	883.00
1083.88	876.00
1084.12	845.00
1084.36	841.00
1084.60	859.00
1084.84	870.00
1085.08	837.00
1085.32	846.00
1085.56	867.00
1085.80	855.00
1086.03	843.00
1086.27	835.00
1086.51	856.00
1086.75	865.00
1086.99	832.00
1087.23	823.00
1087.47	845.00
1087.70	855.00
1087.94	836.00
1088.18	859.00
1088.42	909.00
1088.66	872.00
1088.90	824.00
1089.14	835.00
1089.38	852.00
1089.61	874.00
1089.85	850.00
1090.09	820.00
1090.33	891.00
1090.57	888.00
1090.81	816.00
1091.05	834.00
1091.28	863.00
1091.52	874.00
1091.76	825.00
1092.00	839.00
1092.24	860.00
1092.48	879.00
1092.71	824.00
1092.95	857.00
1093.19	870.00
1093.43	863.00
1093.67	832.00
1093.91	848.00
1094.15	846.00
1094.38	855.00
1094.62	822.00
1094.86	823.00
1095.10	841.00
1095.34	854.00
1095.58	840.00
1095.81	852.00
1096.05	866.00
1096.29	861.00
1096.53	824.00
1096.77	848.00
1097.01	853.00
1097.24	880.00
1097.48	826.00
1097.72	830.00
1097.96	857.00
1098.20	867.00
1098.44	825.00
1098.67	821.00
1098.91	856.00
1099.15	867.00
1099.39	843.00
1099.63	846.00
1099.86	869.00
1100.10	860.00
1100.34	843.00
1100.58	826.00
1100.82	843.00
1101.06	844.00
1101.29	821.00
1101.53	862.00
1101.77	857.00
1102.01	837.00
1102.25	838.00
1102.48	858.00
1102.72	892.00
1102.96	864.00
1103.20	809.00
1103.44	843.00
1103.67	850.00
1103.91	862.00
1104.15	835.00
1104.39	838.00
1104.63	868.00
1104.86	853.00
1105.10	837.00
1105.34	845.00
1105.58	844.00
1105.82	860.00
1106.05	854.00
1106.29	855.00
1106.53	854.00
1106.77	876.00
1107.01	831.00
1107.24	866.00
1107.48	915.00
1107.72	884.00
1107.96	814.00
1108.20	849.00
1108.43	852.00
1108.67	838.00
1108.91	835.00
1109.15	830.00
1109.39	852.00
1109.62	869.00
1109.86	833.00
1110.10	833.00
1110.34	885.00
1110.57	908.00
1110.81	855.00
1111.05	848.00
1111.29	885.00
1111.53	873.00
1111.76	838.00
1112.00	868.00
1112.24	876.00
1112.48	875.00
1112.71	826.00
1112.95	828.00
1113.19	879.00
1113.43	860.00
1113.66	820.00
1113.90	851.00
1114.14	861.00
1114.38	860.00
1114.62	818.00
1114.85	851.00
1115.09	885.00
1115.33	909.00
1115.57	859.00
1115.80	837.00
1116.04	857.00
1116.28	850.00
1116.52	839.00
1116.75	848.00
1116.99	868.00
1117.23	880.00
1117.47	838.00
1117.70	868.00
1117.94	916.00
1118.18	854.00
1118.42	843.00
1118.65	869.00
1118.89	883.00
1119.13	863.00
1119.37	843.00
1119.60	845.00
1119.84	872.00
>>>>>End Processed Spectral Data<<<<<
