SpectraSuite Data File
++++++++++++++++++++++++++++++++++++
Date: Fri Dec 06 14:45:09 CET 2024
User: student
Dark Spectrum Present: No
Reference Spectrum Present: No
Number of Sampled Component Spectra: 1
Spectrometers: HR4C155
Integration Time (usec): 100000 (HR4C155)
Spectra Averaged: 1 (HR4C155)
Boxcar Smoothing: 0 (HR4C155)
Correct for Electrical Dark: No (HR4C155)
Strobe/Lamp Enabled: No (HR4C155)
Correct for Detector Non-linearity: No (HR4C155)
Correct for Stray Light: No (HR4C155)
Number of Pixels in Processed Spectrum: 3648
>>>>>Begin Processed Spectral Data<<<<<
195.39	659.00
195.66	659.00
195.93	659.00
196.20	671.00
196.46	695.00
196.73	812.00
197.00	822.00
197.27	817.00
197.54	831.00
197.81	825.00
198.08	821.00
198.35	852.00
198.61	872.00
198.88	827.00
199.15	816.00
199.42	843.00
199.69	875.00
199.96	829.00
200.23	841.00
200.49	857.00
200.76	873.00
201.03	868.00
201.30	851.00
201.57	910.00
201.84	924.00
202.11	869.00
202.38	886.00
202.64	886.00
202.91	897.00
203.18	855.00
203.45	914.00
203.72	973.00
203.99	907.00
204.25	891.00
204.52	885.00
204.79	907.00
205.06	907.00
205.33	854.00
205.60	882.00
205.87	929.00
206.13	911.00
206.40	862.00
206.67	868.00
206.94	893.00
207.21	901.00
207.48	891.00
207.75	882.00
208.01	916.00
208.28	895.00
208.55	863.00
208.82	885.00
209.09	904.00
209.36	921.00
209.62	893.00
209.89	902.00
210.16	907.00
210.43	946.00
210.70	879.00
210.97	881.00
211.23	911.00
211.50	928.00
211.77	881.00
212.04	888.00
212.31	901.00
212.58	932.00
212.84	897.00
213.11	899.00
213.38	869.00
213.65	901.00
213.92	882.00
214.18	888.00
214.45	947.00
214.72	920.00
214.99	864.00
215.26	889.00
215.53	885.00
215.79	908.00
216.06	910.00
216.33	895.00
216.60	874.00
216.87	907.00
217.13	847.00
217.40	853.00
217.67	894.00
217.94	939.00
218.21	861.00
218.48	901.00
218.74	955.00
219.01	919.00
219.28	863.00
219.55	862.00
219.82	900.00
220.08	904.00
220.35	876.00
220.62	884.00
220.89	934.00
221.16	951.00
221.42	903.00
221.69	907.00
221.96	905.00
222.23	925.00
222.50	913.00
222.76	906.00
223.03	891.00
223.30	891.00
223.57	866.00
223.84	871.00
224.10	875.00
224.37	899.00
224.64	875.00
224.91	875.00
225.18	918.00
225.44	928.00
225.71	881.00
225.98	908.00
226.25	931.00
226.51	943.00
226.78	883.00
227.05	865.00
227.32	878.00
227.59	884.00
227.85	877.00
228.12	887.00
228.39	920.00
228.66	922.00
228.92	923.00
229.19	910.00
229.46	933.00
229.73	889.00
230.00	877.00
230.26	922.00
230.53	933.00
230.80	897.00
231.07	857.00
231.33	866.00
231.60	900.00
231.87	901.00
232.14	867.00
232.41	929.00
232.67	909.00
232.94	909.00
233.21	877.00
233.48	892.00
233.74	919.00
234.01	881.00
234.28	853.00
234.55	864.00
234.81	897.00
235.08	940.00
235.35	887.00
235.62	887.00
235.88	885.00
236.15	915.00
236.42	887.00
236.69	899.00
236.95	914.00
237.22	903.00
237.49	883.00
237.76	874.00
238.02	936.00
238.29	955.00
238.56	887.00
238.83	878.00
239.09	893.00
239.36	919.00
239.63	883.00
239.90	890.00
240.16	918.00
240.43	947.00
240.70	876.00
240.97	890.00
241.23	887.00
241.50	898.00
241.77	875.00
242.04	877.00
242.30	856.00
242.57	890.00
242.84	880.00
243.11	876.00
243.37	859.00
243.64	909.00
243.91	873.00
244.18	877.00
244.44	869.00
244.71	880.00
244.98	898.00
245.24	876.00
245.51	890.00
245.78	925.00
246.05	872.00
246.31	874.00
246.58	912.00
246.85	889.00
247.12	856.00
247.38	902.00
247.65	885.00
247.92	901.00
248.18	872.00
248.45	881.00
248.72	881.00
248.99	894.00
249.25	846.00
249.52	879.00
249.79	901.00
250.05	905.00
250.32	869.00
250.59	863.00
250.86	878.00
251.12	881.00
251.39	844.00
251.66	871.00
251.92	915.00
252.19	917.00
252.46	860.00
252.73	899.00
252.99	912.00
253.26	910.00
253.53	866.00
253.79	874.00
254.06	890.00
254.33	871.00
254.60	829.00
254.86	851.00
255.13	888.00
255.40	932.00
255.66	888.00
255.93	892.00
256.20	897.00
256.46	912.00
256.73	876.00
257.00	883.00
257.26	915.00
257.53	920.00
257.80	880.00
258.07	888.00
258.33	936.00
258.60	918.00
258.87	851.00
259.13	889.00
259.40	886.00
259.67	911.00
259.93	883.00
260.20	890.00
260.47	917.00
260.73	897.00
261.00	877.00
261.27	892.00
261.53	915.00
261.80	906.00
262.07	856.00
262.34	873.00
262.60	861.00
262.87	887.00
263.14	864.00
263.40	893.00
263.67	875.00
263.94	885.00
264.20	877.00
264.47	845.00
264.74	879.00
265.00	884.00
265.27	867.00
265.54	884.00
265.80	911.00
266.07	934.00
266.34	865.00
266.60	876.00
266.87	882.00
267.14	886.00
267.40	878.00
267.67	871.00
267.94	885.00
268.20	877.00
268.47	858.00
268.74	857.00
269.00	877.00
269.27	881.00
269.54	849.00
269.80	874.00
270.07	914.00
270.33	900.00
270.60	870.00
270.87	882.00
271.13	886.00
271.40	898.00
271.67	832.00
271.93	831.00
272.20	885.00
272.47	852.00
272.73	818.00
273.00	846.00
273.27	858.00
273.53	899.00
273.80	863.00
274.07	868.00
274.33	877.00
274.60	912.00
274.86	869.00
275.13	875.00
275.40	864.00
275.66	908.00
275.93	872.00
276.20	859.00
276.46	865.00
276.73	848.00
277.00	855.00
277.26	875.00
277.53	878.00
277.79	890.00
278.06	871.00
278.33	899.00
278.59	933.00
278.86	871.00
279.13	879.00
279.39	896.00
279.66	924.00
279.93	916.00
280.19	857.00
280.46	872.00
280.72	874.00
280.99	890.00
281.26	864.00
281.52	854.00
281.79	893.00
282.05	880.00
282.32	859.00
282.59	886.00
282.85	908.00
283.12	890.00
283.39	877.00
283.65	875.00
283.92	877.00
284.18	896.00
284.45	873.00
284.72	899.00
284.98	883.00
285.25	882.00
285.51	895.00
285.78	889.00
286.05	878.00
286.31	889.00
286.58	843.00
286.84	846.00
287.11	863.00
287.38	898.00
287.64	876.00
287.91	870.00
288.17	909.00
288.44	895.00
288.71	856.00
288.97	881.00
289.24	904.00
289.50	885.00
289.77	881.00
290.04	845.00
290.30	868.00
290.57	908.00
290.83	857.00
291.10	857.00
291.37	886.00
291.63	885.00
291.90	891.00
292.16	881.00
292.43	886.00
292.70	879.00
292.96	837.00
293.23	846.00
293.49	865.00
293.76	882.00
294.02	848.00
294.29	862.00
294.56	898.00
294.82	890.00
295.09	860.00
295.35	854.00
295.62	912.00
295.89	935.00
296.15	876.00
296.42	856.00
296.68	866.00
296.95	868.00
297.21	884.00
297.48	884.00
297.75	888.00
298.01	922.00
298.28	891.00
298.54	888.00
298.81	889.00
299.07	921.00
299.34	847.00
299.61	859.00
299.87	912.00
300.14	890.00
300.40	871.00
300.67	865.00
300.93	884.00
301.20	922.00
301.46	867.00
301.73	878.00
302.00	896.00
302.26	870.00
302.53	876.00
302.79	882.00
303.06	905.00
303.32	929.00
303.59	854.00
303.85	848.00
304.12	885.00
304.39	903.00
304.65	869.00
304.92	866.00
305.18	894.00
305.45	893.00
305.71	873.00
305.98	876.00
306.24	888.00
306.51	881.00
306.77	873.00
307.04	886.00
307.31	903.00
307.57	911.00
307.84	846.00
308.10	867.00
308.37	863.00
308.63	878.00
308.90	857.00
309.16	886.00
309.43	911.00
309.69	881.00
309.96	864.00
310.22	869.00
310.49	887.00
310.76	904.00
311.02	853.00
311.29	864.00
311.55	877.00
311.82	885.00
312.08	876.00
312.35	878.00
312.61	897.00
312.88	911.00
313.14	873.00
313.41	862.00
313.67	859.00
313.94	891.00
314.20	879.00
314.47	893.00
314.73	870.00
315.00	879.00
315.26	869.00
315.53	907.00
315.79	897.00
316.06	885.00
316.32	870.00
316.59	891.00
316.85	880.00
317.12	893.00
317.39	847.00
317.65	870.00
317.92	882.00
318.18	884.00
318.45	873.00
318.71	901.00
318.98	909.00
319.24	897.00
319.51	890.00
319.77	866.00
320.04	883.00
320.30	891.00
320.57	857.00
320.83	854.00
321.10	853.00
321.36	883.00
321.63	862.00
321.89	856.00
322.16	907.00
322.42	902.00
322.69	862.00
322.95	847.00
323.22	883.00
323.48	909.00
323.75	869.00
324.01	884.00
324.28	901.00
324.54	893.00
324.80	862.00
325.07	907.00
325.33	911.00
325.60	894.00
325.86	859.00
326.13	868.00
326.39	880.00
326.66	873.00
326.92	827.00
327.19	868.00
327.45	917.00
327.72	907.00
327.98	855.00
328.25	871.00
328.51	886.00
328.78	890.00
329.04	869.00
329.31	877.00
329.57	871.00
329.84	883.00
330.10	867.00
330.37	876.00
330.63	906.00
330.89	918.00
331.16	854.00
331.42	859.00
331.69	905.00
331.95	881.00
332.22	870.00
332.48	907.00
332.75	885.00
333.01	866.00
333.28	857.00
333.54	874.00
333.81	885.00
334.07	903.00
334.34	880.00
334.60	889.00
334.86	930.00
335.13	914.00
335.39	880.00
335.66	875.00
335.92	900.00
336.19	892.00
336.45	828.00
336.72	853.00
336.98	869.00
337.24	883.00
337.51	853.00
337.77	874.00
338.04	872.00
338.30	872.00
338.57	854.00
338.83	870.00
339.10	895.00
339.36	892.00
339.63	858.00
339.89	844.00
340.15	881.00
340.42	897.00
340.68	873.00
340.95	894.00
341.21	890.00
341.48	886.00
341.74	847.00
342.00	833.00
342.27	874.00
342.53	896.00
342.80	869.00
343.06	880.00
343.33	890.00
343.59	885.00
343.85	837.00
344.12	861.00
344.38	911.00
344.65	907.00
344.91	853.00
345.18	856.00
345.44	882.00
345.70	869.00
345.97	834.00
346.23	858.00
346.50	877.00
346.76	892.00
347.03	896.00
347.29	872.00
347.55	866.00
347.82	873.00
348.08	829.00
348.35	840.00
348.61	928.00
348.87	908.00
349.14	854.00
349.40	871.00
349.67	912.00
349.93	891.00
350.20	892.00
350.46	893.00
350.72	911.00
350.99	879.00
351.25	869.00
351.52	873.00
351.78	885.00
352.04	896.00
352.31	867.00
352.57	865.00
352.84	857.00
353.10	878.00
353.36	867.00
353.63	855.00
353.89	879.00
354.16	903.00
354.42	873.00
354.68	866.00
354.95	905.00
355.21	918.00
355.48	861.00
355.74	898.00
356.00	926.00
356.27	919.00
356.53	854.00
356.80	862.00
357.06	904.00
357.32	906.00
357.59	893.00
357.85	892.00
358.11	923.00
358.38	891.00
358.64	857.00
358.91	871.00
359.17	881.00
359.43	911.00
359.70	879.00
359.96	892.00
360.22	916.00
360.49	882.00
360.75	866.00
361.02	851.00
361.28	860.00
361.54	870.00
361.81	857.00
362.07	879.00
362.33	879.00
362.60	880.00
362.86	851.00
363.13	881.00
363.39	895.00
363.65	902.00
363.92	838.00
364.18	842.00
364.44	894.00
364.71	901.00
364.97	865.00
365.24	855.00
365.50	891.00
365.76	900.00
366.03	863.00
366.29	889.00
366.55	900.00
366.82	883.00
367.08	833.00
367.34	868.00
367.61	881.00
367.87	889.00
368.13	884.00
368.40	877.00
368.66	927.00
368.93	903.00
369.19	834.00
369.45	855.00
369.72	869.00
369.98	879.00
370.24	845.00
370.51	872.00
370.77	901.00
371.03	893.00
371.30	855.00
371.56	894.00
371.82	899.00
372.09	878.00
372.35	875.00
372.61	866.00
372.88	890.00
373.14	907.00
373.40	873.00
373.67	858.00
373.93	874.00
374.19	896.00
374.46	855.00
374.72	854.00
374.98	894.00
375.25	876.00
375.51	872.00
375.77	898.00
376.04	901.00
376.30	903.00
376.56	848.00
376.83	860.00
377.09	885.00
377.35	877.00
377.62	878.00
377.88	867.00
378.14	862.00
378.41	900.00
378.67	865.00
378.93	868.00
379.20	894.00
379.46	881.00
379.72	858.00
379.99	859.00
380.25	858.00
380.51	855.00
380.77	869.00
381.04	891.00
381.30	903.00
381.56	909.00
381.83	877.00
382.09	864.00
382.35	886.00
382.62	889.00
382.88	882.00
383.14	865.00
383.41	878.00
383.67	883.00
383.93	890.00
384.20	888.00
384.46	898.00
384.72	910.00
384.98	853.00
385.25	887.00
385.51	907.00
385.77	881.00
386.04	863.00
386.30	853.00
386.56	889.00
386.82	934.00
387.09	865.00
387.35	895.00
387.61	952.00
387.88	915.00
388.14	889.00
388.40	875.00
388.67	869.00
388.93	882.00
389.19	888.00
389.45	883.00
389.72	890.00
389.98	890.00
390.24	874.00
390.51	857.00
390.77	909.00
391.03	919.00
391.29	864.00
391.56	868.00
391.82	893.00
392.08	930.00
392.35	870.00
392.61	855.00
392.87	889.00
393.13	914.00
393.40	882.00
393.66	858.00
393.92	901.00
394.18	904.00
394.45	858.00
394.71	877.00
394.97	867.00
395.24	855.00
395.50	851.00
395.76	883.00
396.02	890.00
396.29	882.00
396.55	841.00
396.81	836.00
397.07	875.00
397.34	853.00
397.60	842.00
397.86	840.00
398.12	869.00
398.39	907.00
398.65	862.00
398.91	870.00
399.17	869.00
399.44	840.00
399.70	805.00
399.96	843.00
400.22	873.00
400.49	904.00
400.75	881.00
401.01	874.00
401.27	867.00
401.54	889.00
401.80	870.00
402.06	859.00
402.32	893.00
402.59	880.00
402.85	861.00
403.11	863.00
403.37	868.00
403.64	900.00
403.90	860.00
404.16	861.00
404.42	885.00
404.69	876.00
404.95	858.00
405.21	833.00
405.47	858.00
405.74	894.00
406.00	857.00
406.26	855.00
406.52	890.00
406.79	901.00
407.05	857.00
407.31	868.00
407.57	864.00
407.83	882.00
408.10	845.00
408.36	863.00
408.62	886.00
408.88	884.00
409.15	850.00
409.41	817.00
409.67	854.00
409.93	928.00
410.20	880.00
410.46	862.00
410.72	875.00
410.98	887.00
411.24	877.00
411.51	887.00
411.77	861.00
412.03	873.00
412.29	900.00
412.55	881.00
412.82	858.00
413.08	889.00
413.34	882.00
413.60	869.00
413.87	878.00
414.13	874.00
414.39	838.00
414.65	879.00
414.91	880.00
415.18	866.00
415.44	833.00
415.70	843.00
415.96	865.00
416.22	876.00
416.49	834.00
416.75	854.00
417.01	875.00
417.27	861.00
417.53	848.00
417.80	862.00
418.06	888.00
418.32	885.00
418.58	862.00
418.84	852.00
419.11	894.00
419.37	891.00
419.63	871.00
419.89	865.00
420.15	877.00
420.42	884.00
420.68	860.00
420.94	865.00
421.20	866.00
421.46	882.00
421.72	892.00
421.99	886.00
422.25	866.00
422.51	895.00
422.77	876.00
423.03	900.00
423.30	889.00
423.56	897.00
423.82	895.00
424.08	883.00
424.34	886.00
424.60	885.00
424.87	861.00
425.13	833.00
425.39	859.00
425.65	884.00
425.91	843.00
426.18	869.00
426.44	883.00
426.70	849.00
426.96	812.00
427.22	846.00
427.48	869.00
427.75	857.00
428.01	829.00
428.27	866.00
428.53	890.00
428.79	867.00
429.05	857.00
429.32	863.00
429.58	907.00
429.84	880.00
430.10	870.00
430.36	876.00
430.62	906.00
430.88	891.00
431.15	878.00
431.41	873.00
431.67	881.00
431.93	870.00
432.19	839.00
432.45	880.00
432.72	875.00
432.98	888.00
433.24	908.00
433.50	966.00
433.76	876.00
434.02	874.00
434.28	852.00
434.55	867.00
434.81	878.00
435.07	869.00
435.33	822.00
435.59	846.00
435.85	865.00
436.11	879.00
436.38	844.00
436.64	850.00
436.90	871.00
437.16	872.00
437.42	856.00
437.68	865.00
437.94	892.00
438.21	901.00
438.47	884.00
438.73	874.00
438.99	869.00
439.25	889.00
439.51	866.00
439.77	850.00
440.03	870.00
440.30	874.00
440.56	841.00
440.82	881.00
441.08	886.00
441.34	886.00
441.60	847.00
441.86	864.00
442.12	879.00
442.39	887.00
442.65	851.00
442.91	859.00
443.17	865.00
443.43	889.00
443.69	872.00
443.95	843.00
444.21	854.00
444.47	894.00
444.74	842.00
445.00	864.00
445.26	861.00
445.52	877.00
445.78	856.00
446.04	857.00
446.30	894.00
446.56	887.00
446.82	839.00
447.09	843.00
447.35	886.00
447.61	876.00
447.87	871.00
448.13	896.00
448.39	923.00
448.65	910.00
448.91	845.00
449.17	850.00
449.43	872.00
449.70	882.00
449.96	851.00
450.22	856.00
450.48	881.00
450.74	917.00
451.00	847.00
451.26	846.00
451.52	889.00
451.78	885.00
452.04	865.00
452.31	884.00
452.57	884.00
452.83	866.00
453.09	873.00
453.35	872.00
453.61	869.00
453.87	868.00
454.13	875.00
454.39	883.00
454.65	924.00
454.91	900.00
455.17	838.00
455.44	855.00
455.70	894.00
455.96	878.00
456.22	845.00
456.48	863.00
456.74	886.00
457.00	844.00
457.26	810.00
457.52	860.00
457.78	878.00
458.04	866.00
458.30	830.00
458.56	874.00
458.82	863.00
459.09	854.00
459.35	808.00
459.61	842.00
459.87	885.00
460.13	902.00
460.39	857.00
460.65	842.00
460.91	897.00
461.17	883.00
461.43	825.00
461.69	843.00
461.95	884.00
462.21	865.00
462.47	857.00
462.73	891.00
462.99	902.00
463.26	882.00
463.52	842.00
463.78	839.00
464.04	853.00
464.30	861.00
464.56	838.00
464.82	865.00
465.08	903.00
465.34	911.00
465.60	865.00
465.86	870.00
466.12	889.00
466.38	863.00
466.64	862.00
466.90	863.00
467.16	875.00
467.42	890.00
467.68	843.00
467.94	863.00
468.20	894.00
468.46	874.00
468.72	856.00
468.98	861.00
469.25	881.00
469.51	847.00
469.77	861.00
470.03	870.00
470.29	879.00
470.55	882.00
470.81	853.00
471.07	861.00
471.33	882.00
471.59	901.00
471.85	870.00
472.11	875.00
472.37	896.00
472.63	864.00
472.89	858.00
473.15	857.00
473.41	880.00
473.67	866.00
473.93	826.00
474.19	838.00
474.45	865.00
474.71	883.00
474.97	861.00
475.23	856.00
475.49	847.00
475.75	849.00
476.01	841.00
476.27	879.00
476.53	905.00
476.79	890.00
477.05	863.00
477.31	863.00
477.57	881.00
477.83	866.00
478.09	810.00
478.35	862.00
478.61	902.00
478.87	870.00
479.13	847.00
479.39	877.00
479.65	889.00
479.91	893.00
480.17	856.00
480.43	881.00
480.69	857.00
480.95	874.00
481.21	857.00
481.47	863.00
481.73	877.00
481.99	861.00
482.25	844.00
482.51	837.00
482.77	902.00
483.03	894.00
483.29	881.00
483.55	889.00
483.81	903.00
484.07	896.00
484.33	852.00
484.59	845.00
484.85	874.00
485.11	871.00
485.37	851.00
485.63	865.00
485.89	868.00
486.15	869.00
486.41	848.00
486.67	875.00
486.93	887.00
487.19	857.00
487.45	849.00
487.71	867.00
487.97	909.00
488.23	889.00
488.49	836.00
488.75	848.00
489.01	889.00
489.27	909.00
489.53	850.00
489.79	846.00
490.05	868.00
490.31	894.00
490.57	871.00
490.83	917.00
491.08	899.00
491.34	863.00
491.60	840.00
491.86	882.00
492.12	909.00
492.38	884.00
492.64	840.00
492.90	836.00
493.16	874.00
493.42	858.00
493.68	844.00
493.94	883.00
494.20	863.00
494.46	869.00
494.72	833.00
494.98	842.00
495.24	869.00
495.50	873.00
495.76	866.00
496.02	892.00
496.28	902.00
496.54	892.00
496.80	853.00
497.05	845.00
497.31	889.00
497.57	899.00
497.83	844.00
498.09	874.00
498.35	891.00
498.61	882.00
498.87	867.00
499.13	849.00
499.39	869.00
499.65	872.00
499.91	875.00
500.17	857.00
500.43	925.00
500.69	952.00
500.95	861.00
501.20	891.00
501.46	893.00
501.72	907.00
501.98	886.00
502.24	890.00
502.50	901.00
502.76	867.00
503.02	860.00
503.28	862.00
503.54	906.00
503.80	904.00
504.06	889.00
504.32	898.00
504.58	904.00
504.83	874.00
505.09	850.00
505.35	879.00
505.61	863.00
505.87	876.00
506.13	853.00
506.39	846.00
506.65	892.00
506.91	918.00
507.17	865.00
507.43	846.00
507.68	872.00
507.94	905.00
508.20	843.00
508.46	836.00
508.72	882.00
508.98	897.00
509.24	829.00
509.50	874.00
509.76	862.00
510.02	867.00
510.28	848.00
510.53	841.00
510.79	881.00
511.05	884.00
511.31	860.00
511.57	868.00
511.83	880.00
512.09	893.00
512.35	855.00
512.61	847.00
512.87	879.00
513.12	888.00
513.38	842.00
513.64	871.00
513.90	889.00
514.16	908.00
514.42	862.00
514.68	866.00
514.94	887.00
515.20	901.00
515.45	863.00
515.71	841.00
515.97	854.00
516.23	873.00
516.49	848.00
516.75	867.00
517.01	870.00
517.27	856.00
517.53	833.00
517.78	865.00
518.04	878.00
518.30	865.00
518.56	842.00
518.82	873.00
519.08	904.00
519.34	863.00
519.60	875.00
519.85	878.00
520.11	862.00
520.37	852.00
520.63	858.00
520.89	866.00
521.15	885.00
521.41	870.00
521.66	853.00
521.92	864.00
522.18	893.00
522.44	866.00
522.70	862.00
522.96	846.00
523.22	877.00
523.48	866.00
523.73	857.00
523.99	847.00
524.25	899.00
524.51	888.00
524.77	844.00
525.03	853.00
525.29	878.00
525.54	897.00
525.80	856.00
526.06	861.00
526.32	877.00
526.58	887.00
526.84	852.00
527.09	848.00
527.35	862.00
527.61	857.00
527.87	853.00
528.13	901.00
528.39	870.00
528.65	849.00
528.90	823.00
529.16	842.00
529.42	844.00
529.68	865.00
529.94	843.00
530.20	864.00
530.45	856.00
530.71	863.00
530.97	846.00
531.23	858.00
531.49	855.00
531.75	868.00
532.00	846.00
532.26	839.00
532.52	882.00
532.78	872.00
533.04	840.00
533.30	843.00
533.55	865.00
533.81	876.00
534.07	835.00
534.33	848.00
534.59	877.00
534.85	880.00
535.10	851.00
535.36	837.00
535.62	875.00
535.88	861.00
536.14	822.00
536.39	830.00
536.65	899.00
536.91	908.00
537.17	861.00
537.43	860.00
537.69	900.00
537.94	872.00
538.20	845.00
538.46	858.00
538.72	875.00
538.98	883.00
539.23	849.00
539.49	843.00
539.75	892.00
540.01	874.00
540.27	861.00
540.52	898.00
540.78	897.00
541.04	892.00
541.30	850.00
541.56	841.00
541.81	881.00
542.07	931.00
542.33	868.00
542.59	847.00
542.85	861.00
543.10	882.00
543.36	826.00
543.62	858.00
543.88	865.00
544.14	857.00
544.39	832.00
544.65	866.00
544.91	894.00
545.17	888.00
545.43	868.00
545.68	874.00
545.94	885.00
546.20	882.00
546.46	840.00
546.71	840.00
546.97	873.00
547.23	888.00
547.49	862.00
547.75	856.00
548.00	873.00
548.26	898.00
548.52	845.00
548.78	845.00
549.03	857.00
549.29	864.00
549.55	835.00
549.81	868.00
550.07	886.00
550.32	901.00
550.58	841.00
550.84	889.00
551.10	895.00
551.35	862.00
551.61	841.00
551.87	861.00
552.13	883.00
552.39	853.00
552.64	826.00
552.90	860.00
553.16	865.00
553.42	858.00
553.67	834.00
553.93	843.00
554.19	894.00
554.45	914.00
554.70	872.00
554.96	852.00
555.22	870.00
555.48	884.00
555.73	837.00
555.99	858.00
556.25	885.00
556.51	871.00
556.76	849.00
557.02	876.00
557.28	894.00
557.54	863.00
557.79	840.00
558.05	878.00
558.31	857.00
558.57	884.00
558.82	848.00
559.08	823.00
559.34	846.00
559.60	889.00
559.85	852.00
560.11	869.00
560.37	883.00
560.63	865.00
560.88	839.00
561.14	840.00
561.40	885.00
561.66	851.00
561.91	838.00
562.17	847.00
562.43	874.00
562.68	896.00
562.94	882.00
563.20	889.00
563.46	898.00
563.71	906.00
563.97	841.00
564.23	871.00
564.49	895.00
564.74	883.00
565.00	843.00
565.26	865.00
565.51	867.00
565.77	852.00
566.03	827.00
566.29	854.00
566.54	852.00
566.80	852.00
567.06	849.00
567.31	881.00
567.57	890.00
567.83	858.00
568.09	860.00
568.34	845.00
568.60	855.00
568.86	890.00
569.11	874.00
569.37	844.00
569.63	891.00
569.89	892.00
570.14	814.00
570.40	830.00
570.66	862.00
570.91	861.00
571.17	853.00
571.43	880.00
571.69	905.00
571.94	912.00
572.20	849.00
572.46	858.00
572.71	892.00
572.97	870.00
573.23	849.00
573.48	841.00
573.74	859.00
574.00	896.00
574.26	856.00
574.51	855.00
574.77	888.00
575.03	878.00
575.28	848.00
575.54	837.00
575.80	859.00
576.05	870.00
576.31	837.00
576.57	834.00
576.82	862.00
577.08	873.00
577.34	849.00
577.59	864.00
577.85	886.00
578.11	858.00
578.37	852.00
578.62	867.00
578.88	899.00
579.14	896.00
579.39	861.00
579.65	861.00
579.91	878.00
580.16	874.00
580.42	854.00
580.68	868.00
580.93	886.00
581.19	874.00
581.45	846.00
581.70	857.00
581.96	889.00
582.22	880.00
582.47	865.00
582.73	865.00
582.99	880.00
583.24	869.00
583.50	838.00
583.76	857.00
584.01	861.00
584.27	887.00
584.53	855.00
584.78	871.00
585.04	855.00
585.30	883.00
585.55	881.00
585.81	859.00
586.07	901.00
586.32	889.00
586.58	847.00
586.83	850.00
587.09	877.00
587.35	866.00
587.60	866.00
587.86	861.00
588.12	879.00
588.37	898.00
588.63	859.00
588.89	874.00
589.14	883.00
589.40	888.00
589.66	851.00
589.91	877.00
590.17	885.00
590.43	843.00
590.68	829.00
590.94	865.00
591.19	878.00
591.45	865.00
591.71	846.00
591.96	859.00
592.22	877.00
592.48	890.00
592.73	834.00
592.99	848.00
593.25	882.00
593.50	897.00
593.76	845.00
594.01	863.00
594.27	894.00
594.53	873.00
594.78	860.00
595.04	867.00
595.30	889.00
595.55	883.00
595.81	837.00
596.06	872.00
596.32	913.00
596.58	889.00
596.83	850.00
597.09	874.00
597.35	889.00
597.60	877.00
597.86	849.00
598.11	869.00
598.37	896.00
598.63	900.00
598.88	874.00
599.14	858.00
599.39	917.00
599.65	898.00
599.91	843.00
600.16	874.00
600.42	898.00
600.67	921.00
600.93	872.00
601.19	885.00
601.44	940.00
601.70	907.00
601.95	864.00
602.21	897.00
602.47	904.00
602.72	916.00
602.98	884.00
603.23	882.00
603.49	902.00
603.75	918.00
604.00	886.00
604.26	893.00
604.51	890.00
604.77	921.00
605.03	869.00
605.28	888.00
605.54	960.00
605.79	964.00
606.05	868.00
606.31	881.00
606.56	916.00
606.82	924.00
607.07	917.00
607.33	926.00
607.59	954.00
607.84	939.00
608.10	889.00
608.35	921.00
608.61	930.00
608.86	948.00
609.12	915.00
609.38	948.00
609.63	952.00
609.89	966.00
610.14	899.00
610.40	912.00
610.65	953.00
610.91	966.00
611.17	946.00
611.42	946.00
611.68	981.00
611.93	981.00
612.19	966.00
612.44	986.00
612.70	1007.00
612.96	982.00
613.21	954.00
613.47	957.00
613.72	980.00
613.98	1025.00
614.23	998.00
614.49	1011.00
614.75	1027.00
615.00	1022.00
615.26	1017.00
615.51	1002.00
615.77	1028.00
616.02	1067.00
616.28	1019.00
616.53	1052.00
616.79	1066.00
617.05	1053.00
617.30	1035.00
617.56	1058.00
617.81	1090.00
618.07	1110.00
618.32	1092.00
618.58	1098.00
618.83	1129.00
619.09	1152.00
619.34	1096.00
619.60	1123.00
619.86	1185.00
620.11	1217.00
620.37	1201.00
620.62	1202.00
620.88	1252.00
621.13	1262.00
621.39	1229.00
621.64	1232.00
621.90	1286.00
622.15	1316.00
622.41	1340.00
622.66	1357.00
622.92	1445.00
623.18	1543.00
623.43	1498.00
623.69	1432.00
623.94	1425.00
624.20	1431.00
624.45	1468.00
624.71	1536.00
624.96	1625.00
625.22	1731.00
625.47	1749.00
625.73	1788.00
625.98	1761.00
626.24	1789.00
626.49	1842.00
626.75	1895.00
627.00	1996.00
627.26	2048.00
627.51	2050.00
627.77	2119.00
628.02	2352.00
628.28	2454.00
628.53	2452.00
628.79	2503.00
629.05	2558.00
629.30	2724.00
629.56	2701.00
629.81	2653.00
630.07	2681.00
630.32	2648.00
630.58	2629.00
630.83	2809.00
631.09	2973.00
631.34	3018.00
631.60	3117.00
631.85	3291.00
632.11	3585.00
632.36	3772.00
632.62	3944.00
632.87	4315.00
633.13	4311.00
633.38	4028.00
633.64	4094.00
633.89	4593.00
634.15	4781.00
634.40	4918.00
634.66	5194.00
634.91	5259.00
635.17	5345.00
635.42	5319.00
635.68	5111.00
635.93	4996.00
636.18	5236.00
636.44	5298.00
636.69	4965.00
636.95	4849.00
637.20	4816.00
637.46	4742.00
637.71	4819.00
637.97	4961.00
638.22	5006.00
638.48	4414.00
638.73	3804.00
638.99	3666.00
639.24	3699.00
639.50	3685.00
639.75	3690.00
640.01	3417.00
640.26	3331.00
640.52	3321.00
640.77	3134.00
641.03	3045.00
641.28	2791.00
641.54	2677.00
641.79	2680.00
642.04	2647.00
642.30	2631.00
642.55	2673.00
642.81	2485.00
643.06	2234.00
643.32	2030.00
643.57	1903.00
643.83	1854.00
644.08	1832.00
644.34	1823.00
644.59	1797.00
644.85	1685.00
645.10	1605.00
645.35	1588.00
645.61	1583.00
645.86	1567.00
646.12	1501.00
646.37	1488.00
646.63	1451.00
646.88	1432.00
647.14	1445.00
647.39	1410.00
647.65	1345.00
647.90	1241.00
648.15	1237.00
648.41	1270.00
648.66	1255.00
648.92	1193.00
649.17	1173.00
649.43	1156.00
649.68	1154.00
649.94	1180.00
650.19	1164.00
650.44	1154.00
650.70	1131.00
650.95	1069.00
651.21	1067.00
651.46	1074.00
651.72	1072.00
651.97	1030.00
652.23	993.00
652.48	995.00
652.73	1014.00
652.99	989.00
653.24	992.00
653.50	983.00
653.75	970.00
654.01	943.00
654.26	949.00
654.51	968.00
654.77	973.00
655.02	956.00
655.28	934.00
655.53	941.00
655.79	953.00
656.04	952.00
656.29	946.00
656.55	928.00
656.80	935.00
657.06	883.00
657.31	890.00
657.56	898.00
657.82	918.00
658.07	901.00
658.33	924.00
658.58	925.00
658.84	938.00
659.09	896.00
659.34	901.00
659.60	904.00
659.85	899.00
660.11	862.00
660.36	882.00
660.61	901.00
660.87	884.00
661.12	855.00
661.38	884.00
661.63	893.00
661.88	900.00
662.14	890.00
662.39	879.00
662.65	931.00
662.90	941.00
663.15	865.00
663.41	878.00
663.66	913.00
663.92	934.00
664.17	874.00
664.42	889.00
664.68	919.00
664.93	875.00
665.19	854.00
665.44	856.00
665.69	863.00
665.95	872.00
666.20	858.00
666.45	892.00
666.71	891.00
666.96	892.00
667.22	849.00
667.47	866.00
667.72	862.00
667.98	890.00
668.23	852.00
668.49	892.00
668.74	886.00
668.99	897.00
669.25	846.00
669.50	848.00
669.75	869.00
670.01	875.00
670.26	830.00
670.52	853.00
670.77	900.00
671.02	872.00
671.28	848.00
671.53	876.00
671.78	882.00
672.04	888.00
672.29	843.00
672.54	842.00
672.80	862.00
673.05	870.00
673.31	856.00
673.56	888.00
673.81	911.00
674.07	898.00
674.32	866.00
674.57	861.00
674.83	875.00
675.08	883.00
675.33	868.00
675.59	874.00
675.84	878.00
676.09	873.00
676.35	847.00
676.60	853.00
676.86	871.00
677.11	904.00
677.36	870.00
677.62	863.00
677.87	913.00
678.12	908.00
678.38	836.00
678.63	858.00
678.88	901.00
679.14	888.00
679.39	835.00
679.64	875.00
679.90	857.00
680.15	883.00
680.40	871.00
680.66	846.00
680.91	866.00
681.16	871.00
681.42	853.00
681.67	861.00
681.92	872.00
682.18	914.00
682.43	859.00
682.68	859.00
682.94	858.00
683.19	849.00
683.44	829.00
683.70	860.00
683.95	884.00
684.20	884.00
684.46	879.00
684.71	882.00
684.96	861.00
685.22	886.00
685.47	855.00
685.72	857.00
685.98	891.00
686.23	842.00
686.48	846.00
686.74	889.00
686.99	910.00
687.24	892.00
687.50	851.00
687.75	824.00
688.00	867.00
688.25	882.00
688.51	874.00
688.76	889.00
689.01	866.00
689.27	859.00
689.52	810.00
689.77	856.00
690.03	845.00
690.28	868.00
690.53	839.00
690.79	870.00
691.04	880.00
691.29	890.00
691.54	840.00
691.80	866.00
692.05	867.00
692.30	871.00
692.56	853.00
692.81	863.00
693.06	864.00
693.32	863.00
693.57	850.00
693.82	873.00
694.07	875.00
694.33	868.00
694.58	849.00
694.83	876.00
695.09	868.00
695.34	892.00
695.59	865.00
695.84	865.00
696.10	861.00
696.35	876.00
696.60	829.00
696.86	834.00
697.11	869.00
697.36	887.00
697.61	846.00
697.87	861.00
698.12	844.00
698.37	865.00
698.63	853.00
698.88	840.00
699.13	870.00
699.38	881.00
699.64	829.00
699.89	853.00
700.14	848.00
700.39	854.00
700.65	836.00
700.90	865.00
701.15	866.00
701.40	874.00
701.66	837.00
701.91	872.00
702.16	871.00
702.42	858.00
702.67	817.00
702.92	836.00
703.17	849.00
703.43	860.00
703.68	865.00
703.93	895.00
704.18	915.00
704.44	885.00
704.69	855.00
704.94	860.00
705.19	875.00
705.45	878.00
705.70	854.00
705.95	841.00
706.20	844.00
706.46	875.00
706.71	839.00
706.96	851.00
707.21	868.00
707.47	870.00
707.72	861.00
707.97	874.00
708.22	877.00
708.48	882.00
708.73	846.00
708.98	856.00
709.23	865.00
709.49	860.00
709.74	853.00
709.99	861.00
710.24	865.00
710.50	878.00
710.75	869.00
711.00	879.00
711.25	871.00
711.50	868.00
711.76	842.00
712.01	840.00
712.26	851.00
712.51	862.00
712.77	850.00
713.02	844.00
713.27	836.00
713.52	852.00
713.78	844.00
714.03	861.00
714.28	858.00
714.53	875.00
714.78	844.00
715.04	859.00
715.29	869.00
715.54	887.00
715.79	845.00
716.05	866.00
716.30	883.00
716.55	877.00
716.80	850.00
717.05	865.00
717.31	875.00
717.56	880.00
717.81	838.00
718.06	842.00
718.31	833.00
718.57	867.00
718.82	862.00
719.07	881.00
719.32	844.00
719.57	870.00
719.83	838.00
720.08	863.00
720.33	856.00
720.58	840.00
720.83	812.00
721.09	870.00
721.34	871.00
721.59	884.00
721.84	834.00
722.09	856.00
722.35	863.00
722.60	842.00
722.85	820.00
723.10	854.00
723.35	842.00
723.61	865.00
723.86	862.00
724.11	862.00
724.36	877.00
724.61	861.00
724.87	861.00
725.12	854.00
725.37	867.00
725.62	844.00
725.87	830.00
726.12	844.00
726.38	830.00
726.63	891.00
726.88	861.00
727.13	871.00
727.38	859.00
727.64	855.00
727.89	827.00
728.14	839.00
728.39	829.00
728.64	861.00
728.89	841.00
729.15	860.00
729.40	885.00
729.65	888.00
729.90	833.00
730.15	853.00
730.40	882.00
730.66	862.00
730.91	832.00
731.16	850.00
731.41	863.00
731.66	863.00
731.91	855.00
732.17	877.00
732.42	865.00
732.67	864.00
732.92	837.00
733.17	872.00
733.42	873.00
733.68	867.00
733.93	831.00
734.18	857.00
734.43	832.00
734.68	854.00
734.93	852.00
735.18	866.00
735.44	872.00
735.69	884.00
735.94	817.00
736.19	863.00
736.44	867.00
736.69	892.00
736.95	845.00
737.20	862.00
737.45	883.00
737.70	881.00
737.95	866.00
738.20	885.00
738.45	890.00
738.70	878.00
738.96	861.00
739.21	887.00
739.46	888.00
739.71	896.00
739.96	848.00
740.21	865.00
740.46	925.00
740.72	905.00
740.97	837.00
741.22	870.00
741.47	841.00
741.72	859.00
741.97	823.00
742.22	856.00
742.47	865.00
742.73	863.00
742.98	835.00
743.23	837.00
743.48	838.00
743.73	876.00
743.98	849.00
744.23	854.00
744.48	873.00
744.74	874.00
744.99	845.00
745.24	874.00
745.49	858.00
745.74	885.00
745.99	839.00
746.24	848.00
746.49	850.00
746.74	855.00
747.00	849.00
747.25	841.00
747.50	811.00
747.75	831.00
748.00	820.00
748.25	837.00
748.50	857.00
748.75	878.00
749.00	868.00
749.26	881.00
749.51	875.00
749.76	884.00
750.01	846.00
750.26	868.00
750.51	900.00
750.76	866.00
751.01	840.00
751.26	868.00
751.51	884.00
751.77	880.00
752.02	857.00
752.27	835.00
752.52	853.00
752.77	857.00
753.02	829.00
753.27	878.00
753.52	870.00
753.77	846.00
754.02	849.00
754.27	870.00
754.52	823.00
754.78	862.00
755.03	855.00
755.28	878.00
755.53	881.00
755.78	862.00
756.03	830.00
756.28	865.00
756.53	864.00
756.78	864.00
757.03	848.00
757.28	867.00
757.53	867.00
757.79	843.00
758.04	836.00
758.29	897.00
758.54	875.00
758.79	877.00
759.04	824.00
759.29	834.00
759.54	846.00
759.79	861.00
760.04	848.00
760.29	842.00
760.54	849.00
760.79	854.00
761.04	840.00
761.29	853.00
761.55	845.00
761.80	857.00
762.05	829.00
762.30	858.00
762.55	850.00
762.80	888.00
763.05	875.00
763.30	890.00
763.55	912.00
763.80	881.00
764.05	838.00
764.30	871.00
764.55	890.00
764.80	858.00
765.05	824.00
765.30	868.00
765.55	874.00
765.80	852.00
766.05	822.00
766.30	868.00
766.56	876.00
766.81	878.00
767.06	856.00
767.31	857.00
767.56	861.00
767.81	855.00
768.06	842.00
768.31	881.00
768.56	867.00
768.81	883.00
769.06	842.00
769.31	861.00
769.56	855.00
769.81	890.00
770.06	850.00
770.31	851.00
770.56	869.00
770.81	859.00
771.06	827.00
771.31	858.00
771.56	875.00
771.81	883.00
772.06	840.00
772.31	872.00
772.56	864.00
772.81	877.00
773.06	830.00
773.31	865.00
773.56	861.00
773.81	833.00
774.06	820.00
774.31	861.00
774.56	874.00
774.81	875.00
775.06	856.00
775.31	892.00
775.56	874.00
775.81	851.00
776.06	843.00
776.31	854.00
776.56	857.00
776.82	864.00
777.07	843.00
777.32	862.00
777.57	860.00
777.82	886.00
778.07	853.00
778.32	850.00
778.57	853.00
778.82	890.00
779.07	850.00
779.32	852.00
779.57	838.00
779.82	854.00
780.07	846.00
780.32	862.00
780.56	868.00
780.81	910.00
781.06	855.00
781.31	851.00
781.56	885.00
781.81	873.00
782.06	846.00
782.31	867.00
782.56	865.00
782.81	889.00
783.06	844.00
783.31	860.00
783.56	858.00
783.81	868.00
784.06	857.00
784.31	849.00
784.56	822.00
784.81	896.00
785.06	847.00
785.31	868.00
785.56	843.00
785.81	840.00
786.06	828.00
786.31	867.00
786.56	857.00
786.81	870.00
787.06	850.00
787.31	840.00
787.56	849.00
787.81	829.00
788.06	823.00
788.31	852.00
788.56	840.00
788.81	886.00
789.06	848.00
789.31	856.00
789.56	854.00
789.81	851.00
790.06	837.00
790.31	888.00
790.56	864.00
790.80	856.00
791.05	828.00
791.30	831.00
791.55	850.00
791.80	886.00
792.05	854.00
792.30	852.00
792.55	838.00
792.80	857.00
793.05	837.00
793.30	857.00
793.55	866.00
793.80	871.00
794.05	827.00
794.30	859.00
794.55	863.00
794.80	878.00
795.05	838.00
795.30	859.00
795.54	835.00
795.79	858.00
796.04	845.00
796.29	862.00
796.54	854.00
796.79	874.00
797.04	853.00
797.29	857.00
797.54	855.00
797.79	862.00
798.04	844.00
798.29	837.00
798.54	835.00
798.79	863.00
799.04	838.00
799.29	859.00
799.53	858.00
799.78	869.00
800.03	850.00
800.28	828.00
800.53	836.00
800.78	890.00
801.03	838.00
801.28	837.00
801.53	844.00
801.78	876.00
802.03	856.00
802.28	861.00
802.52	875.00
802.77	898.00
803.02	871.00
803.27	880.00
803.52	845.00
803.77	885.00
804.02	865.00
804.27	882.00
804.52	870.00
804.77	889.00
805.02	855.00
805.27	866.00
805.51	871.00
805.76	883.00
806.01	833.00
806.26	839.00
806.51	848.00
806.76	890.00
807.01	866.00
807.26	849.00
807.51	864.00
807.76	840.00
808.00	843.00
808.25	866.00
808.50	872.00
808.75	868.00
809.00	825.00
809.25	848.00
809.50	856.00
809.75	883.00
810.00	853.00
810.24	840.00
810.49	815.00
810.74	825.00
810.99	842.00
811.24	866.00
811.49	864.00
811.74	888.00
811.99	825.00
812.24	871.00
812.48	868.00
812.73	848.00
812.98	808.00
813.23	839.00
813.48	875.00
813.73	857.00
813.98	807.00
814.23	851.00
814.47	841.00
814.72	836.00
814.97	822.00
815.22	852.00
815.47	825.00
815.72	837.00
815.97	829.00
816.22	845.00
816.46	859.00
816.71	876.00
816.96	858.00
817.21	863.00
817.46	841.00
817.71	852.00
817.96	853.00
818.20	838.00
818.45	827.00
818.70	866.00
818.95	841.00
819.20	852.00
819.45	859.00
819.70	865.00
819.94	838.00
820.19	860.00
820.44	848.00
820.69	885.00
820.94	850.00
821.19	869.00
821.44	913.00
821.68	925.00
821.93	844.00
822.18	867.00
822.43	884.00
822.68	877.00
822.93	843.00
823.17	870.00
823.42	874.00
823.67	845.00
823.92	844.00
824.17	841.00
824.42	841.00
824.67	881.00
824.91	859.00
825.16	853.00
825.41	877.00
825.66	870.00
825.91	832.00
826.16	837.00
826.40	842.00
826.65	864.00
826.90	826.00
827.15	851.00
827.40	859.00
827.65	871.00
827.89	807.00
828.14	845.00
828.39	860.00
828.64	870.00
828.89	827.00
829.13	854.00
829.38	849.00
829.63	862.00
829.88	856.00
830.13	848.00
830.38	838.00
830.62	862.00
830.87	840.00
831.12	870.00
831.37	891.00
831.62	892.00
831.86	838.00
832.11	846.00
832.36	824.00
832.61	876.00
832.86	848.00
833.10	870.00
833.35	849.00
833.60	871.00
833.85	835.00
834.10	875.00
834.35	876.00
834.59	906.00
834.84	854.00
835.09	879.00
835.34	846.00
835.59	856.00
835.83	872.00
836.08	878.00
836.33	867.00
836.58	878.00
836.83	853.00
837.07	862.00
837.32	878.00
837.57	858.00
837.82	842.00
838.06	874.00
838.31	902.00
838.56	889.00
838.81	827.00
839.06	858.00
839.30	858.00
839.55	873.00
839.80	840.00
840.05	860.00
840.30	884.00
840.54	885.00
840.79	818.00
841.04	854.00
841.29	873.00
841.53	861.00
841.78	823.00
842.03	832.00
842.28	836.00
842.53	846.00
842.77	858.00
843.02	857.00
843.27	848.00
843.52	869.00
843.76	856.00
844.01	861.00
844.26	857.00
844.51	880.00
844.75	849.00
845.00	826.00
845.25	842.00
845.50	867.00
845.75	838.00
845.99	868.00
846.24	871.00
846.49	896.00
846.74	833.00
846.98	825.00
847.23	849.00
847.48	859.00
847.73	828.00
847.97	841.00
848.22	884.00
848.47	878.00
848.72	846.00
848.96	846.00
849.21	872.00
849.46	855.00
849.71	835.00
849.95	842.00
850.20	833.00
850.45	869.00
850.70	834.00
850.94	853.00
851.19	848.00
851.44	861.00
851.69	829.00
851.93	849.00
852.18	879.00
852.43	872.00
852.68	861.00
852.92	872.00
853.17	895.00
853.42	897.00
853.66	869.00
853.91	890.00
854.16	857.00
854.41	894.00
854.65	851.00
854.90	860.00
855.15	853.00
855.40	873.00
855.64	864.00
855.89	856.00
856.14	864.00
856.39	863.00
856.63	836.00
856.88	831.00
857.13	839.00
857.37	858.00
857.62	824.00
857.87	822.00
858.12	846.00
858.36	864.00
858.61	801.00
858.86	845.00
859.10	875.00
859.35	865.00
859.60	826.00
859.85	833.00
860.09	836.00
860.34	874.00
860.59	843.00
860.83	844.00
861.08	863.00
861.33	903.00
861.58	841.00
861.82	848.00
862.07	848.00
862.32	862.00
862.56	835.00
862.81	857.00
863.06	848.00
863.30	850.00
863.55	840.00
863.80	852.00
864.05	863.00
864.29	849.00
864.54	855.00
864.79	861.00
865.03	878.00
865.28	872.00
865.53	843.00
865.77	827.00
866.02	866.00
866.27	882.00
866.51	861.00
866.76	846.00
867.01	847.00
867.26	868.00
867.50	840.00
867.75	833.00
868.00	864.00
868.24	877.00
868.49	841.00
868.74	845.00
868.98	835.00
869.23	868.00
869.48	857.00
869.72	835.00
869.97	836.00
870.22	881.00
870.46	842.00
870.71	853.00
870.96	862.00
871.20	870.00
871.45	826.00
871.70	847.00
871.94	888.00
872.19	878.00
872.44	862.00
872.68	844.00
872.93	851.00
873.18	858.00
873.42	844.00
873.67	853.00
873.92	876.00
874.16	861.00
874.41	843.00
874.66	857.00
874.90	871.00
875.15	883.00
875.40	868.00
875.64	862.00
875.89	865.00
876.14	869.00
876.38	839.00
876.63	844.00
876.88	856.00
877.12	894.00
877.37	844.00
877.62	854.00
877.86	873.00
878.11	867.00
878.36	820.00
878.60	842.00
878.85	834.00
879.09	857.00
879.34	842.00
879.59	854.00
879.83	885.00
880.08	910.00
880.33	866.00
880.57	861.00
880.82	885.00
881.07	872.00
881.31	846.00
881.56	842.00
881.80	844.00
882.05	842.00
882.30	823.00
882.54	843.00
882.79	876.00
883.04	921.00
883.28	874.00
883.53	871.00
883.77	867.00
884.02	882.00
884.27	844.00
884.51	852.00
884.76	848.00
885.01	873.00
885.25	845.00
885.50	851.00
885.74	847.00
885.99	871.00
886.24	845.00
886.48	865.00
886.73	897.00
886.98	900.00
887.22	853.00
887.47	853.00
887.71	860.00
887.96	869.00
888.21	837.00
888.45	835.00
888.70	854.00
888.94	877.00
889.19	830.00
889.44	848.00
889.68	850.00
889.93	884.00
890.17	850.00
890.42	856.00
890.67	879.00
890.91	956.00
891.16	852.00
891.40	829.00
891.65	848.00
891.90	885.00
892.14	827.00
892.39	852.00
892.63	849.00
892.88	883.00
893.13	854.00
893.37	836.00
893.62	835.00
893.86	882.00
894.11	844.00
894.36	857.00
894.60	867.00
894.85	864.00
895.09	835.00
895.34	878.00
895.59	891.00
895.83	867.00
896.08	828.00
896.32	833.00
896.57	859.00
896.81	858.00
897.06	841.00
897.31	853.00
897.55	869.00
897.80	847.00
898.04	833.00
898.29	852.00
898.53	867.00
898.78	879.00
899.03	855.00
899.27	842.00
899.52	863.00
899.76	886.00
900.01	834.00
900.25	853.00
900.50	854.00
900.75	868.00
900.99	849.00
901.24	897.00
901.48	851.00
901.73	868.00
901.97	837.00
902.22	859.00
902.47	868.00
902.71	865.00
902.96	825.00
903.20	844.00
903.45	868.00
903.69	873.00
903.94	854.00
904.18	836.00
904.43	838.00
904.68	866.00
904.92	819.00
905.17	854.00
905.41	880.00
905.66	874.00
905.90	867.00
906.15	865.00
906.39	869.00
906.64	859.00
906.88	818.00
907.13	836.00
907.38	864.00
907.62	877.00
907.87	841.00
908.11	865.00
908.36	844.00
908.60	866.00
908.85	809.00
909.09	857.00
909.34	844.00
909.58	859.00
909.83	833.00
910.07	845.00
910.32	894.00
910.56	905.00
910.81	840.00
911.06	879.00
911.30	876.00
911.55	848.00
911.79	832.00
912.04	843.00
912.28	842.00
912.53	872.00
912.77	850.00
913.02	835.00
913.26	846.00
913.51	872.00
913.75	839.00
914.00	833.00
914.24	868.00
914.49	868.00
914.73	834.00
914.98	866.00
915.22	883.00
915.47	858.00
915.71	842.00
915.96	872.00
916.20	854.00
916.45	847.00
916.69	832.00
916.94	863.00
917.18	862.00
917.43	868.00
917.67	833.00
917.92	839.00
918.16	873.00
918.41	872.00
918.65	823.00
918.90	824.00
919.14	825.00
919.39	861.00
919.63	846.00
919.88	851.00
920.12	879.00
920.37	863.00
920.61	822.00
920.86	855.00
921.10	868.00
921.35	860.00
921.59	843.00
921.84	859.00
922.08	875.00
922.33	883.00
922.57	833.00
922.82	834.00
923.06	851.00
923.31	860.00
923.55	832.00
923.80	861.00
924.04	849.00
924.29	877.00
924.53	848.00
924.78	859.00
925.02	855.00
925.27	871.00
925.51	844.00
925.76	864.00
926.00	850.00
926.25	860.00
926.49	844.00
926.73	844.00
926.98	855.00
927.22	888.00
927.47	849.00
927.71	848.00
927.96	870.00
928.20	857.00
928.45	849.00
928.69	886.00
928.94	870.00
929.18	856.00
929.43	863.00
929.67	849.00
929.91	866.00
930.16	877.00
930.40	825.00
930.65	837.00
930.89	863.00
931.14	907.00
931.38	853.00
931.63	858.00
931.87	865.00
932.12	867.00
932.36	825.00
932.60	847.00
932.85	874.00
933.09	860.00
933.34	825.00
933.58	862.00
933.83	843.00
934.07	888.00
934.32	860.00
934.56	869.00
934.80	891.00
935.05	889.00
935.29	848.00
935.54	863.00
935.78	854.00
936.03	875.00
936.27	828.00
936.52	828.00
936.76	838.00
937.00	856.00
937.25	842.00
937.49	874.00
937.74	881.00
937.98	871.00
938.23	824.00
938.47	840.00
938.71	852.00
938.96	860.00
939.20	836.00
939.45	839.00
939.69	848.00
939.94	865.00
940.18	811.00
940.42	841.00
940.67	865.00
940.91	855.00
941.16	845.00
941.40	835.00
941.64	866.00
941.89	878.00
942.13	834.00
942.38	861.00
942.62	925.00
942.87	889.00
943.11	877.00
943.35	832.00
943.60	844.00
943.84	873.00
944.09	853.00
944.33	862.00
944.57	888.00
944.82	862.00
945.06	849.00
945.31	870.00
945.55	844.00
945.79	876.00
946.04	851.00
946.28	833.00
946.53	844.00
946.77	862.00
947.01	823.00
947.26	869.00
947.50	868.00
947.75	876.00
947.99	856.00
948.23	872.00
948.48	859.00
948.72	853.00
948.97	828.00
949.21	846.00
949.45	854.00
949.70	885.00
949.94	837.00
950.18	864.00
950.43	861.00
950.67	876.00
950.92	847.00
951.16	839.00
951.40	846.00
951.65	870.00
951.89	836.00
952.13	860.00
952.38	874.00
952.62	872.00
952.87	829.00
953.11	869.00
953.35	882.00
953.60	871.00
953.84	818.00
954.08	832.00
954.33	852.00
954.57	866.00
954.82	846.00
955.06	839.00
955.30	845.00
955.55	854.00
955.79	839.00
956.03	844.00
956.28	853.00
956.52	857.00
956.76	861.00
957.01	854.00
957.25	838.00
957.50	863.00
957.74	841.00
957.98	838.00
958.23	873.00
958.47	867.00
958.71	849.00
958.96	870.00
959.20	876.00
959.44	857.00
959.69	844.00
959.93	861.00
960.17	876.00
960.42	868.00
960.66	850.00
960.90	878.00
961.15	866.00
961.39	866.00
961.64	833.00
961.88	833.00
962.12	873.00
962.37	870.00
962.61	826.00
962.85	845.00
963.10	877.00
963.34	874.00
963.58	837.00
963.83	850.00
964.07	855.00
964.31	877.00
964.56	866.00
964.80	855.00
965.04	855.00
965.29	851.00
965.53	835.00
965.77	848.00
966.02	822.00
966.26	833.00
966.50	817.00
966.74	856.00
966.99	875.00
967.23	863.00
967.47	841.00
967.72	864.00
967.96	871.00
968.20	861.00
968.45	825.00
968.69	837.00
968.93	843.00
969.18	844.00
969.42	841.00
969.66	846.00
969.91	843.00
970.15	878.00
970.39	833.00
970.64	848.00
970.88	860.00
971.12	866.00
971.36	843.00
971.61	834.00
971.85	849.00
972.09	856.00
972.34	828.00
972.58	844.00
972.82	858.00
973.07	884.00
973.31	843.00
973.55	843.00
973.79	873.00
974.04	886.00
974.28	868.00
974.52	859.00
974.77	856.00
975.01	878.00
975.25	849.00
975.50	862.00
975.74	869.00
975.98	877.00
976.22	839.00
976.47	827.00
976.71	846.00
976.95	881.00
977.20	851.00
977.44	833.00
977.68	848.00
977.92	868.00
978.17	845.00
978.41	854.00
978.65	872.00
978.90	865.00
979.14	858.00
979.38	862.00
979.62	845.00
979.87	856.00
980.11	819.00
980.35	842.00
980.59	856.00
980.84	858.00
981.08	844.00
981.32	842.00
981.57	871.00
981.81	856.00
982.05	856.00
982.29	854.00
982.54	862.00
982.78	857.00
983.02	836.00
983.26	865.00
983.51	886.00
983.75	879.00
983.99	839.00
984.23	875.00
984.48	871.00
984.72	893.00
984.96	839.00
985.20	846.00
985.45	900.00
985.69	874.00
985.93	848.00
986.17	876.00
986.42	857.00
986.66	849.00
986.90	810.00
987.14	832.00
987.39	848.00
987.63	840.00
987.87	826.00
988.11	840.00
988.36	873.00
988.60	867.00
988.84	858.00
989.08	837.00
989.33	873.00
989.57	866.00
989.81	827.00
990.05	831.00
990.30	838.00
990.54	838.00
990.78	832.00
991.02	836.00
991.27	865.00
991.51	885.00
991.75	842.00
991.99	861.00
992.23	852.00
992.48	841.00
992.72	821.00
992.96	835.00
993.20	832.00
993.45	858.00
993.69	859.00
993.93	830.00
994.17	862.00
994.41	862.00
994.66	823.00
994.90	855.00
995.14	872.00
995.38	855.00
995.63	850.00
995.87	844.00
996.11	887.00
996.35	865.00
996.59	819.00
996.84	841.00
997.08	856.00
997.32	857.00
997.56	843.00
997.80	829.00
998.05	836.00
998.29	841.00
998.53	828.00
998.77	853.00
999.01	876.00
999.26	861.00
999.50	837.00
999.74	847.00
999.98	874.00
1000.22	855.00
1000.47	819.00
1000.71	820.00
1000.95	862.00
1001.19	859.00
1001.43	853.00
1001.68	850.00
1001.92	839.00
1002.16	841.00
1002.40	821.00
1002.64	849.00
1002.89	861.00
1003.13	862.00
1003.37	859.00
1003.61	820.00
1003.85	853.00
1004.10	856.00
1004.34	836.00
1004.58	832.00
1004.82	856.00
1005.06	846.00
1005.30	833.00
1005.55	846.00
1005.79	865.00
1006.03	857.00
1006.27	843.00
1006.51	852.00
1006.76	853.00
1007.00	857.00
1007.24	845.00
1007.48	847.00
1007.72	876.00
1007.96	855.00
1008.21	843.00
1008.45	840.00
1008.69	860.00
1008.93	888.00
1009.17	856.00
1009.41	865.00
1009.66	889.00
1009.90	861.00
1010.14	830.00
1010.38	852.00
1010.62	872.00
1010.86	890.00
1011.10	843.00
1011.35	834.00
1011.59	846.00
1011.83	844.00
1012.07	824.00
1012.31	857.00
1012.55	857.00
1012.80	862.00
1013.04	860.00
1013.28	866.00
1013.52	872.00
1013.76	889.00
1014.00	828.00
1014.24	836.00
1014.49	860.00
1014.73	894.00
1014.97	870.00
1015.21	863.00
1015.45	885.00
1015.69	856.00
1015.93	847.00
1016.18	855.00
1016.42	868.00
1016.66	868.00
1016.90	837.00
1017.14	834.00
1017.38	846.00
1017.62	857.00
1017.87	840.00
1018.11	837.00
1018.35	854.00
1018.59	873.00
1018.83	825.00
1019.07	851.00
1019.31	887.00
1019.55	877.00
1019.80	849.00
1020.04	857.00
1020.28	852.00
1020.52	854.00
1020.76	829.00
1021.00	829.00
1021.24	846.00
1021.48	842.00
1021.73	841.00
1021.97	860.00
1022.21	866.00
1022.45	871.00
1022.69	849.00
1022.93	816.00
1023.17	867.00
1023.41	910.00
1023.65	852.00
1023.90	876.00
1024.14	864.00
1024.38	840.00
1024.62	816.00
1024.86	835.00
1025.10	872.00
1025.34	858.00
1025.58	815.00
1025.82	842.00
1026.07	874.00
1026.31	877.00
1026.55	832.00
1026.79	832.00
1027.03	860.00
1027.27	864.00
1027.51	814.00
1027.75	806.00
1027.99	833.00
1028.23	875.00
1028.47	847.00
1028.72	837.00
1028.96	858.00
1029.20	850.00
1029.44	842.00
1029.68	855.00
1029.92	870.00
1030.16	886.00
1030.40	814.00
1030.64	835.00
1030.88	849.00
1031.12	856.00
1031.37	825.00
1031.61	835.00
1031.85	864.00
1032.09	881.00
1032.33	851.00
1032.57	872.00
1032.81	839.00
1033.05	869.00
1033.29	852.00
1033.53	840.00
1033.77	904.00
1034.01	901.00
1034.25	856.00
1034.50	852.00
1034.74	875.00
1034.98	873.00
1035.22	837.00
1035.46	860.00
1035.70	874.00
1035.94	875.00
1036.18	841.00
1036.42	851.00
1036.66	852.00
1036.90	860.00
1037.14	827.00
1037.38	834.00
1037.62	863.00
1037.86	857.00
1038.10	833.00
1038.35	829.00
1038.59	854.00
1038.83	867.00
1039.07	859.00
1039.31	873.00
1039.55	836.00
1039.79	870.00
1040.03	840.00
1040.27	829.00
1040.51	875.00
1040.75	886.00
1040.99	860.00
1041.23	848.00
1041.47	855.00
1041.71	878.00
1041.95	840.00
1042.19	847.00
1042.43	884.00
1042.67	888.00
1042.91	848.00
1043.15	842.00
1043.39	882.00
1043.64	854.00
1043.88	830.00
1044.12	848.00
1044.36	902.00
1044.60	881.00
1044.84	852.00
1045.08	854.00
1045.32	868.00
1045.56	882.00
1045.80	847.00
1046.04	853.00
1046.28	886.00
1046.52	881.00
1046.76	820.00
1047.00	835.00
1047.24	873.00
1047.48	846.00
1047.72	840.00
1047.96	833.00
1048.20	857.00
1048.44	865.00
1048.68	836.00
1048.92	840.00
1049.16	869.00
1049.40	876.00
1049.64	829.00
1049.88	847.00
1050.12	867.00
1050.36	884.00
1050.60	839.00
1050.84	851.00
1051.08	854.00
1051.32	849.00
1051.56	847.00
1051.80	826.00
1052.04	840.00
1052.28	869.00
1052.52	830.00
1052.76	842.00
1053.00	861.00
1053.24	868.00
1053.48	836.00
1053.72	840.00
1053.96	858.00
1054.20	864.00
1054.44	836.00
1054.68	858.00
1054.92	868.00
1055.16	838.00
1055.40	836.00
1055.64	854.00
1055.88	877.00
1056.12	901.00
1056.36	816.00
1056.60	833.00
1056.84	874.00
1057.08	848.00
1057.32	821.00
1057.56	820.00
1057.80	846.00
1058.04	869.00
1058.28	828.00
1058.52	863.00
1058.76	882.00
1059.00	886.00
1059.24	821.00
1059.48	829.00
1059.72	864.00
1059.96	865.00
1060.20	848.00
1060.44	872.00
1060.68	884.00
1060.92	857.00
1061.16	817.00
1061.40	855.00
1061.64	868.00
1061.88	858.00
1062.11	839.00
1062.35	830.00
1062.59	841.00
1062.83	884.00
1063.07	853.00
1063.31	820.00
1063.55	840.00
1063.79	873.00
1064.03	837.00
1064.27	848.00
1064.51	859.00
1064.75	876.00
1064.99	856.00
1065.23	854.00
1065.47	849.00
1065.71	876.00
1065.95	843.00
1066.19	837.00
1066.43	880.00
1066.67	877.00
1066.91	856.00
1067.15	853.00
1067.38	860.00
1067.62	865.00
1067.86	832.00
1068.10	860.00
1068.34	895.00
1068.58	890.00
1068.82	856.00
1069.06	813.00
1069.30	846.00
1069.54	879.00
1069.78	863.00
1070.02	849.00
1070.26	893.00
1070.50	897.00
1070.74	846.00
1070.98	877.00
1071.21	872.00
1071.45	852.00
1071.69	829.00
1071.93	838.00
1072.17	865.00
1072.41	881.00
1072.65	876.00
1072.89	866.00
1073.13	862.00
1073.37	868.00
1073.61	848.00
1073.85	851.00
1074.09	857.00
1074.32	852.00
1074.56	844.00
1074.80	910.00
1075.04	1091.00
1075.28	962.00
1075.52	851.00
1075.76	856.00
1076.00	878.00
1076.24	881.00
1076.48	861.00
1076.72	862.00
1076.96	883.00
1077.19	883.00
1077.43	831.00
1077.67	862.00
1077.91	873.00
1078.15	856.00
1078.39	853.00
1078.63	847.00
1078.87	852.00
1079.11	871.00
1079.35	839.00
1079.58	851.00
1079.82	849.00
1080.06	845.00
1080.30	836.00
1080.54	869.00
1080.78	897.00
1081.02	867.00
1081.26	827.00
1081.50	855.00
1081.74	869.00
1081.97	868.00
1082.21	858.00
1082.45	865.00
1082.69	870.00
1082.93	849.00
1083.17	839.00
1083.41	834.00
1083.65	886.00
1083.88	887.00
1084.12	856.00
1084.36	852.00
1084.60	847.00
1084.84	872.00
1085.08	832.00
1085.32	830.00
1085.56	869.00
1085.80	877.00
1086.03	848.00
1086.27	823.00
1086.51	857.00
1086.75	882.00
1086.99	828.00
1087.23	825.00
1087.47	868.00
1087.70	857.00
1087.94	852.00
1088.18	875.00
1088.42	896.00
1088.66	866.00
1088.90	822.00
1089.14	843.00
1089.38	860.00
1089.61	876.00
1089.85	854.00
1090.09	843.00
1090.33	886.00
1090.57	882.00
1090.81	818.00
1091.05	838.00
1091.28	863.00
1091.52	870.00
1091.76	841.00
1092.00	849.00
1092.24	856.00
1092.48	886.00
1092.71	836.00
1092.95	856.00
1093.19	865.00
1093.43	874.00
1093.67	850.00
1093.91	862.00
1094.15	862.00
1094.38	877.00
1094.62	835.00
1094.86	817.00
1095.10	847.00
1095.34	863.00
1095.58	837.00
1095.81	855.00
1096.05	892.00
1096.29	896.00
1096.53	812.00
1096.77	844.00
1097.01	852.00
1097.24	873.00
1097.48	828.00
1097.72	846.00
1097.96	870.00
1098.20	872.00
1098.44	832.00
1098.67	816.00
1098.91	864.00
1099.15	876.00
1099.39	833.00
1099.63	852.00
1099.86	873.00
1100.10	845.00
1100.34	838.00
1100.58	835.00
1100.82	866.00
1101.06	854.00
1101.29	830.00
1101.53	868.00
1101.77	875.00
1102.01	846.00
1102.25	840.00
1102.48	859.00
1102.72	907.00
1102.96	869.00
1103.20	809.00
1103.44	833.00
1103.67	869.00
1103.91	885.00
1104.15	822.00
1104.39	829.00
1104.63	850.00
1104.86	837.00
1105.10	844.00
1105.34	858.00
1105.58	847.00
1105.82	857.00
1106.05	846.00
1106.29	846.00
1106.53	852.00
1106.77	884.00
1107.01	847.00
1107.24	868.00
1107.48	893.00
1107.72	868.00
1107.96	812.00
1108.20	853.00
1108.43	877.00
1108.67	859.00
1108.91	828.00
1109.15	844.00
1109.39	849.00
1109.62	859.00
1109.86	825.00
1110.10	841.00
1110.34	888.00
1110.57	904.00
1110.81	834.00
1111.05	845.00
1111.29	893.00
1111.53	903.00
1111.76	851.00
1112.00	869.00
1112.24	890.00
1112.48	872.00
1112.71	805.00
1112.95	841.00
1113.19	876.00
1113.43	856.00
1113.66	794.00
1113.90	860.00
1114.14	873.00
1114.38	873.00
1114.62	835.00
1114.85	862.00
1115.09	869.00
1115.33	913.00
1115.57	858.00
1115.80	845.00
1116.04	861.00
1116.28	853.00
1116.52	840.00
1116.75	854.00
1116.99	885.00
1117.23	882.00
1117.47	860.00
1117.70	877.00
1117.94	921.00
1118.18	863.00
1118.42	841.00
1118.65	862.00
1118.89	874.00
1119.13	870.00
1119.37	857.00
1119.60	862.00
1119.84	872.00
>>>>>End Processed Spectral Data<<<<<
