SpectraSuite Data File
++++++++++++++++++++++++++++++++++++
Date: Fri Dec 06 14:46:58 CET 2024
User: student
Dark Spectrum Present: No
Reference Spectrum Present: No
Number of Sampled Component Spectra: 1
Spectrometers: HR4C155
Integration Time (usec): 100000 (HR4C155)
Spectra Averaged: 1 (HR4C155)
Boxcar Smoothing: 0 (HR4C155)
Correct for Electrical Dark: No (HR4C155)
Strobe/Lamp Enabled: No (HR4C155)
Correct for Detector Non-linearity: No (HR4C155)
Correct for Stray Light: No (HR4C155)
Number of Pixels in Processed Spectrum: 3648
>>>>>Begin Processed Spectral Data<<<<<
195.39	726.00
195.66	726.00
195.93	726.00
196.20	655.00
196.46	695.00
196.73	804.00
197.00	819.00
197.27	830.00
197.54	847.00
197.81	838.00
198.08	835.00
198.35	873.00
198.61	877.00
198.88	848.00
199.15	863.00
199.42	861.00
199.69	857.00
199.96	851.00
200.23	864.00
200.49	863.00
200.76	870.00
201.03	861.00
201.30	857.00
201.57	894.00
201.84	914.00
202.11	875.00
202.38	901.00
202.64	901.00
202.91	897.00
203.18	846.00
203.45	905.00
203.72	977.00
203.99	913.00
204.25	908.00
204.52	900.00
204.79	915.00
205.06	919.00
205.33	860.00
205.60	871.00
205.87	905.00
206.13	924.00
206.40	903.00
206.67	870.00
206.94	901.00
207.21	928.00
207.48	881.00
207.75	866.00
208.01	902.00
208.28	919.00
208.55	882.00
208.82	890.00
209.09	898.00
209.36	938.00
209.62	902.00
209.89	901.00
210.16	920.00
210.43	942.00
210.70	882.00
210.97	886.00
211.23	906.00
211.50	927.00
211.77	878.00
212.04	906.00
212.31	904.00
212.58	922.00
212.84	890.00
213.11	876.00
213.38	865.00
213.65	893.00
213.92	870.00
214.18	882.00
214.45	944.00
214.72	930.00
214.99	873.00
215.26	879.00
215.53	873.00
215.79	911.00
216.06	913.00
216.33	890.00
216.60	869.00
216.87	914.00
217.13	851.00
217.40	870.00
217.67	917.00
217.94	938.00
218.21	879.00
218.48	898.00
218.74	941.00
219.01	906.00
219.28	830.00
219.55	864.00
219.82	892.00
220.08	908.00
220.35	884.00
220.62	884.00
220.89	935.00
221.16	939.00
221.42	893.00
221.69	916.00
221.96	916.00
222.23	941.00
222.50	916.00
222.76	904.00
223.03	894.00
223.30	896.00
223.57	875.00
223.84	867.00
224.10	877.00
224.37	905.00
224.64	875.00
224.91	875.00
225.18	919.00
225.44	921.00
225.71	888.00
225.98	913.00
226.25	919.00
226.51	920.00
226.78	867.00
227.05	879.00
227.32	898.00
227.59	920.00
227.85	881.00
228.12	873.00
228.39	922.00
228.66	933.00
228.92	921.00
229.19	893.00
229.46	909.00
229.73	889.00
230.00	857.00
230.26	877.00
230.53	903.00
230.80	903.00
231.07	857.00
231.33	858.00
231.60	900.00
231.87	916.00
232.14	885.00
232.41	925.00
232.67	904.00
232.94	915.00
233.21	865.00
233.48	891.00
233.74	908.00
234.01	899.00
234.28	864.00
234.55	880.00
234.81	881.00
235.08	939.00
235.35	892.00
235.62	877.00
235.88	899.00
236.15	913.00
236.42	900.00
236.69	917.00
236.95	906.00
237.22	880.00
237.49	875.00
237.76	878.00
238.02	914.00
238.29	931.00
238.56	895.00
238.83	873.00
239.09	876.00
239.36	920.00
239.63	888.00
239.90	892.00
240.16	923.00
240.43	962.00
240.70	894.00
240.97	879.00
241.23	884.00
241.50	908.00
241.77	874.00
242.04	878.00
242.30	870.00
242.57	897.00
242.84	877.00
243.11	901.00
243.37	863.00
243.64	921.00
243.91	884.00
244.18	878.00
244.44	867.00
244.71	889.00
244.98	884.00
245.24	882.00
245.51	902.00
245.78	928.00
246.05	873.00
246.31	886.00
246.58	921.00
246.85	891.00
247.12	870.00
247.38	907.00
247.65	903.00
247.92	930.00
248.18	892.00
248.45	887.00
248.72	893.00
248.99	922.00
249.25	871.00
249.52	881.00
249.79	917.00
250.05	917.00
250.32	882.00
250.59	891.00
250.86	891.00
251.12	892.00
251.39	877.00
251.66	906.00
251.92	923.00
252.19	929.00
252.46	871.00
252.73	903.00
252.99	918.00
253.26	933.00
253.53	869.00
253.79	884.00
254.06	888.00
254.33	882.00
254.60	846.00
254.86	862.00
255.13	921.00
255.40	938.00
255.66	858.00
255.93	877.00
256.20	915.00
256.46	905.00
256.73	869.00
257.00	882.00
257.26	903.00
257.53	909.00
257.80	876.00
258.07	878.00
258.33	939.00
258.60	929.00
258.87	863.00
259.13	894.00
259.40	893.00
259.67	932.00
259.93	904.00
260.20	894.00
260.47	908.00
260.73	913.00
261.00	874.00
261.27	898.00
261.53	915.00
261.80	891.00
262.07	866.00
262.34	870.00
262.60	868.00
262.87	888.00
263.14	863.00
263.40	903.00
263.67	898.00
263.94	910.00
264.20	875.00
264.47	846.00
264.74	872.00
265.00	879.00
265.27	863.00
265.54	874.00
265.80	916.00
266.07	926.00
266.34	866.00
266.60	878.00
266.87	894.00
267.14	910.00
267.40	878.00
267.67	862.00
267.94	875.00
268.20	893.00
268.47	863.00
268.74	870.00
269.00	897.00
269.27	884.00
269.54	834.00
269.80	849.00
270.07	889.00
270.33	871.00
270.60	882.00
270.87	895.00
271.13	885.00
271.40	900.00
271.67	830.00
271.93	844.00
272.20	890.00
272.47	883.00
272.73	833.00
273.00	875.00
273.27	904.00
273.53	909.00
273.80	862.00
274.07	854.00
274.33	865.00
274.60	897.00
274.86	879.00
275.13	875.00
275.40	859.00
275.66	918.00
275.93	871.00
276.20	869.00
276.46	878.00
276.73	872.00
277.00	876.00
277.26	896.00
277.53	906.00
277.79	883.00
278.06	852.00
278.33	913.00
278.59	909.00
278.86	889.00
279.13	880.00
279.39	889.00
279.66	913.00
279.93	937.00
280.19	868.00
280.46	877.00
280.72	886.00
280.99	909.00
281.26	886.00
281.52	861.00
281.79	900.00
282.05	897.00
282.32	882.00
282.59	882.00
282.85	925.00
283.12	913.00
283.39	870.00
283.65	892.00
283.92	901.00
284.18	908.00
284.45	887.00
284.72	873.00
284.98	885.00
285.25	878.00
285.51	884.00
285.78	892.00
286.05	900.00
286.31	895.00
286.58	848.00
286.84	858.00
287.11	886.00
287.38	918.00
287.64	893.00
287.91	855.00
288.17	889.00
288.44	886.00
288.71	845.00
288.97	862.00
289.24	913.00
289.50	891.00
289.77	889.00
290.04	847.00
290.30	862.00
290.57	914.00
290.83	857.00
291.10	876.00
291.37	901.00
291.63	900.00
291.90	898.00
292.16	883.00
292.43	900.00
292.70	876.00
292.96	838.00
293.23	853.00
293.49	879.00
293.76	897.00
294.02	877.00
294.29	867.00
294.56	890.00
294.82	891.00
295.09	869.00
295.35	874.00
295.62	910.00
295.89	927.00
296.15	879.00
296.42	862.00
296.68	881.00
296.95	878.00
297.21	887.00
297.48	876.00
297.75	886.00
298.01	919.00
298.28	877.00
298.54	889.00
298.81	880.00
299.07	902.00
299.34	863.00
299.61	875.00
299.87	915.00
300.14	899.00
300.40	889.00
300.67	886.00
300.93	897.00
301.20	920.00
301.46	875.00
301.73	878.00
302.00	904.00
302.26	888.00
302.53	886.00
302.79	875.00
303.06	900.00
303.32	943.00
303.59	862.00
303.85	873.00
304.12	877.00
304.39	895.00
304.65	878.00
304.92	879.00
305.18	883.00
305.45	896.00
305.71	861.00
305.98	883.00
306.24	884.00
306.51	879.00
306.77	861.00
307.04	872.00
307.31	903.00
307.57	912.00
307.84	853.00
308.10	875.00
308.37	856.00
308.63	870.00
308.90	879.00
309.16	892.00
309.43	906.00
309.69	887.00
309.96	883.00
310.22	883.00
310.49	894.00
310.76	892.00
311.02	862.00
311.29	864.00
311.55	882.00
311.82	900.00
312.08	874.00
312.35	887.00
312.61	909.00
312.88	925.00
313.14	860.00
313.41	838.00
313.67	844.00
313.94	898.00
314.20	886.00
314.47	894.00
314.73	881.00
315.00	864.00
315.26	852.00
315.53	891.00
315.79	887.00
316.06	890.00
316.32	874.00
316.59	887.00
316.85	882.00
317.12	904.00
317.39	845.00
317.65	876.00
317.92	886.00
318.18	892.00
318.45	870.00
318.71	921.00
318.98	914.00
319.24	885.00
319.51	869.00
319.77	862.00
320.04	885.00
320.30	872.00
320.57	858.00
320.83	849.00
321.10	859.00
321.36	885.00
321.63	844.00
321.89	859.00
322.16	920.00
322.42	906.00
322.69	858.00
322.95	864.00
323.22	893.00
323.48	919.00
323.75	875.00
324.01	883.00
324.28	888.00
324.54	898.00
324.80	882.00
325.07	888.00
325.33	894.00
325.60	890.00
325.86	843.00
326.13	878.00
326.39	886.00
326.66	879.00
326.92	836.00
327.19	863.00
327.45	921.00
327.72	919.00
327.98	868.00
328.25	862.00
328.51	900.00
328.78	888.00
329.04	857.00
329.31	884.00
329.57	905.00
329.84	886.00
330.10	874.00
330.37	869.00
330.63	911.00
330.89	930.00
331.16	878.00
331.42	871.00
331.69	893.00
331.95	884.00
332.22	877.00
332.48	909.00
332.75	903.00
333.01	855.00
333.28	851.00
333.54	866.00
333.81	883.00
334.07	902.00
334.34	876.00
334.60	873.00
334.86	916.00
335.13	936.00
335.39	875.00
335.66	874.00
335.92	904.00
336.19	902.00
336.45	829.00
336.72	869.00
336.98	865.00
337.24	890.00
337.51	866.00
337.77	881.00
338.04	889.00
338.30	901.00
338.57	859.00
338.83	870.00
339.10	894.00
339.36	878.00
339.63	857.00
339.89	839.00
340.15	889.00
340.42	907.00
340.68	883.00
340.95	871.00
341.21	884.00
341.48	884.00
341.74	850.00
342.00	856.00
342.27	893.00
342.53	895.00
342.80	861.00
343.06	875.00
343.33	886.00
343.59	910.00
343.85	870.00
344.12	885.00
344.38	939.00
344.65	927.00
344.91	879.00
345.18	872.00
345.44	878.00
345.70	884.00
345.97	845.00
346.23	869.00
346.50	898.00
346.76	903.00
347.03	884.00
347.29	863.00
347.55	880.00
347.82	879.00
348.08	830.00
348.35	843.00
348.61	923.00
348.87	906.00
349.14	859.00
349.40	862.00
349.67	902.00
349.93	888.00
350.20	877.00
350.46	884.00
350.72	898.00
350.99	886.00
351.25	859.00
351.52	865.00
351.78	862.00
352.04	874.00
352.31	865.00
352.57	873.00
352.84	888.00
353.10	879.00
353.36	878.00
353.63	860.00
353.89	874.00
354.16	897.00
354.42	885.00
354.68	893.00
354.95	921.00
355.21	905.00
355.48	857.00
355.74	900.00
356.00	922.00
356.27	905.00
356.53	851.00
356.80	872.00
357.06	897.00
357.32	921.00
357.59	891.00
357.85	879.00
358.11	919.00
358.38	905.00
358.64	858.00
358.91	880.00
359.17	883.00
359.43	898.00
359.70	873.00
359.96	872.00
360.22	893.00
360.49	891.00
360.75	870.00
361.02	851.00
361.28	872.00
361.54	896.00
361.81	837.00
362.07	858.00
362.33	867.00
362.60	869.00
362.86	848.00
363.13	866.00
363.39	915.00
363.65	913.00
363.92	836.00
364.18	829.00
364.44	883.00
364.71	901.00
364.97	871.00
365.24	857.00
365.50	901.00
365.76	895.00
366.03	889.00
366.29	901.00
366.55	890.00
366.82	887.00
367.08	844.00
367.34	877.00
367.61	910.00
367.87	902.00
368.13	883.00
368.40	881.00
368.66	938.00
368.93	901.00
369.19	847.00
369.45	873.00
369.72	898.00
369.98	891.00
370.24	857.00
370.51	870.00
370.77	890.00
371.03	872.00
371.30	859.00
371.56	880.00
371.82	909.00
372.09	874.00
372.35	877.00
372.61	885.00
372.88	879.00
373.14	880.00
373.40	869.00
373.67	864.00
373.93	885.00
374.19	913.00
374.46	874.00
374.72	851.00
374.98	895.00
375.25	888.00
375.51	866.00
375.77	891.00
376.04	905.00
376.30	910.00
376.56	857.00
376.83	866.00
377.09	886.00
377.35	877.00
377.62	858.00
377.88	854.00
378.14	870.00
378.41	914.00
378.67	873.00
378.93	877.00
379.20	909.00
379.46	879.00
379.72	859.00
379.99	881.00
380.25	881.00
380.51	871.00
380.77	850.00
381.04	875.00
381.30	886.00
381.56	915.00
381.83	881.00
382.09	864.00
382.35	877.00
382.62	896.00
382.88	889.00
383.14	871.00
383.41	881.00
383.67	877.00
383.93	877.00
384.20	867.00
384.46	885.00
384.72	912.00
384.98	865.00
385.25	885.00
385.51	904.00
385.77	901.00
386.04	845.00
386.30	841.00
386.56	883.00
386.82	923.00
387.09	860.00
387.35	911.00
387.61	955.00
387.88	900.00
388.14	884.00
388.40	887.00
388.67	879.00
388.93	889.00
389.19	880.00
389.45	870.00
389.72	876.00
389.98	917.00
390.24	877.00
390.51	866.00
390.77	901.00
391.03	906.00
391.29	858.00
391.56	884.00
391.82	896.00
392.08	911.00
392.35	868.00
392.61	867.00
392.87	889.00
393.13	906.00
393.40	872.00
393.66	868.00
393.92	892.00
394.18	882.00
394.45	829.00
394.71	860.00
394.97	890.00
395.24	866.00
395.50	857.00
395.76	881.00
396.02	901.00
396.29	910.00
396.55	852.00
396.81	820.00
397.07	867.00
397.34	859.00
397.60	848.00
397.86	855.00
398.12	869.00
398.39	902.00
398.65	862.00
398.91	869.00
399.17	873.00
399.44	847.00
399.70	824.00
399.96	853.00
400.22	860.00
400.49	900.00
400.75	893.00
401.01	853.00
401.27	867.00
401.54	910.00
401.80	867.00
402.06	844.00
402.32	905.00
402.59	877.00
402.85	853.00
403.11	868.00
403.37	874.00
403.64	896.00
403.90	853.00
404.16	871.00
404.42	868.00
404.69	863.00
404.95	856.00
405.21	854.00
405.47	875.00
405.74	893.00
406.00	852.00
406.26	847.00
406.52	879.00
406.79	905.00
407.05	862.00
407.31	873.00
407.57	866.00
407.83	887.00
408.10	855.00
408.36	857.00
408.62	860.00
408.88	873.00
409.15	852.00
409.41	837.00
409.67	869.00
409.93	902.00
410.20	873.00
410.46	863.00
410.72	864.00
410.98	876.00
411.24	858.00
411.51	863.00
411.77	846.00
412.03	862.00
412.29	875.00
412.55	890.00
412.82	880.00
413.08	895.00
413.34	870.00
413.60	881.00
413.87	879.00
414.13	900.00
414.39	839.00
414.65	859.00
414.91	892.00
415.18	872.00
415.44	836.00
415.70	842.00
415.96	876.00
416.22	881.00
416.49	850.00
416.75	870.00
417.01	884.00
417.27	877.00
417.53	872.00
417.80	875.00
418.06	886.00
418.32	902.00
418.58	848.00
418.84	835.00
419.11	885.00
419.37	896.00
419.63	851.00
419.89	856.00
420.15	874.00
420.42	871.00
420.68	856.00
420.94	882.00
421.20	864.00
421.46	882.00
421.72	877.00
421.99	880.00
422.25	861.00
422.51	883.00
422.77	874.00
423.03	886.00
423.30	889.00
423.56	892.00
423.82	891.00
424.08	887.00
424.34	898.00
424.60	889.00
424.87	845.00
425.13	853.00
425.39	877.00
425.65	884.00
425.91	861.00
426.18	870.00
426.44	890.00
426.70	858.00
426.96	825.00
427.22	825.00
427.48	855.00
427.75	883.00
428.01	839.00
428.27	835.00
428.53	892.00
428.79	864.00
429.05	836.00
429.32	866.00
429.58	909.00
429.84	859.00
430.10	866.00
430.36	874.00
430.62	903.00
430.88	895.00
431.15	873.00
431.41	862.00
431.67	886.00
431.93	872.00
432.19	824.00
432.45	864.00
432.72	888.00
432.98	893.00
433.24	902.00
433.50	973.00
433.76	878.00
434.02	861.00
434.28	841.00
434.55	856.00
434.81	900.00
435.07	917.00
435.33	842.00
435.59	836.00
435.85	866.00
436.11	885.00
436.38	843.00
436.64	869.00
436.90	876.00
437.16	888.00
437.42	863.00
437.68	866.00
437.94	881.00
438.21	882.00
438.47	880.00
438.73	868.00
438.99	887.00
439.25	881.00
439.51	843.00
439.77	871.00
440.03	874.00
440.30	884.00
440.56	869.00
440.82	898.00
441.08	895.00
441.34	886.00
441.60	858.00
441.86	871.00
442.12	900.00
442.39	876.00
442.65	842.00
442.91	855.00
443.17	860.00
443.43	882.00
443.69	872.00
443.95	852.00
444.21	867.00
444.47	897.00
444.74	849.00
445.00	871.00
445.26	875.00
445.52	888.00
445.78	859.00
446.04	856.00
446.30	906.00
446.56	887.00
446.82	841.00
447.09	852.00
447.35	886.00
447.61	887.00
447.87	862.00
448.13	868.00
448.39	924.00
448.65	891.00
448.91	859.00
449.17	848.00
449.43	861.00
449.70	879.00
449.96	838.00
450.22	862.00
450.48	889.00
450.74	909.00
451.00	853.00
451.26	855.00
451.52	866.00
451.78	856.00
452.04	863.00
452.31	887.00
452.57	893.00
452.83	855.00
453.09	843.00
453.35	866.00
453.61	893.00
453.87	876.00
454.13	889.00
454.39	877.00
454.65	916.00
454.91	924.00
455.17	857.00
455.44	869.00
455.70	889.00
455.96	889.00
456.22	861.00
456.48	858.00
456.74	882.00
457.00	839.00
457.26	822.00
457.52	858.00
457.78	880.00
458.04	885.00
458.30	837.00
458.56	851.00
458.82	859.00
459.09	855.00
459.35	814.00
459.61	837.00
459.87	882.00
460.13	898.00
460.39	858.00
460.65	831.00
460.91	870.00
461.17	854.00
461.43	835.00
461.69	848.00
461.95	867.00
462.21	875.00
462.47	865.00
462.73	887.00
462.99	905.00
463.26	904.00
463.52	857.00
463.78	845.00
464.04	863.00
464.30	872.00
464.56	838.00
464.82	855.00
465.08	919.00
465.34	936.00
465.60	884.00
465.86	889.00
466.12	886.00
466.38	852.00
466.64	839.00
466.90	866.00
467.16	873.00
467.42	886.00
467.68	850.00
467.94	880.00
468.20	915.00
468.46	887.00
468.72	869.00
468.98	875.00
469.25	880.00
469.51	864.00
469.77	897.00
470.03	868.00
470.29	869.00
470.55	887.00
470.81	854.00
471.07	862.00
471.33	893.00
471.59	904.00
471.85	874.00
472.11	885.00
472.37	889.00
472.63	865.00
472.89	866.00
473.15	880.00
473.41	890.00
473.67	890.00
473.93	833.00
474.19	840.00
474.45	862.00
474.71	865.00
474.97	845.00
475.23	859.00
475.49	856.00
475.75	847.00
476.01	849.00
476.27	874.00
476.53	907.00
476.79	892.00
477.05	877.00
477.31	873.00
477.57	891.00
477.83	879.00
478.09	829.00
478.35	858.00
478.61	908.00
478.87	888.00
479.13	860.00
479.39	869.00
479.65	886.00
479.91	895.00
480.17	863.00
480.43	875.00
480.69	867.00
480.95	883.00
481.21	859.00
481.47	875.00
481.73	886.00
481.99	867.00
482.25	833.00
482.51	826.00
482.77	887.00
483.03	901.00
483.29	879.00
483.55	860.00
483.81	894.00
484.07	892.00
484.33	850.00
484.59	854.00
484.85	886.00
485.11	888.00
485.37	858.00
485.63	861.00
485.89	865.00
486.15	866.00
486.41	856.00
486.67	860.00
486.93	868.00
487.19	860.00
487.45	851.00
487.71	841.00
487.97	901.00
488.23	902.00
488.49	848.00
488.75	851.00
489.01	884.00
489.27	901.00
489.53	846.00
489.79	841.00
490.05	845.00
490.31	876.00
490.57	887.00
490.83	917.00
491.08	883.00
491.34	868.00
491.60	837.00
491.86	862.00
492.12	921.00
492.38	915.00
492.64	849.00
492.90	846.00
493.16	882.00
493.42	848.00
493.68	836.00
493.94	876.00
494.20	862.00
494.46	878.00
494.72	851.00
494.98	853.00
495.24	848.00
495.50	873.00
495.76	876.00
496.02	874.00
496.28	885.00
496.54	900.00
496.80	858.00
497.05	841.00
497.31	874.00
497.57	884.00
497.83	860.00
498.09	871.00
498.35	900.00
498.61	886.00
498.87	853.00
499.13	867.00
499.39	877.00
499.65	878.00
499.91	864.00
500.17	854.00
500.43	934.00
500.69	941.00
500.95	851.00
501.20	883.00
501.46	891.00
501.72	885.00
501.98	868.00
502.24	882.00
502.50	907.00
502.76	880.00
503.02	862.00
503.28	869.00
503.54	902.00
503.80	923.00
504.06	901.00
504.32	901.00
504.58	891.00
504.83	877.00
505.09	835.00
505.35	871.00
505.61	866.00
505.87	877.00
506.13	889.00
506.39	867.00
506.65	889.00
506.91	943.00
507.17	868.00
507.43	843.00
507.68	862.00
507.94	874.00
508.20	850.00
508.46	853.00
508.72	897.00
508.98	914.00
509.24	851.00
509.50	881.00
509.76	869.00
510.02	881.00
510.28	862.00
510.53	857.00
510.79	882.00
511.05	877.00
511.31	851.00
511.57	864.00
511.83	886.00
512.09	896.00
512.35	861.00
512.61	868.00
512.87	885.00
513.12	894.00
513.38	833.00
513.64	866.00
513.90	885.00
514.16	912.00
514.42	854.00
514.68	866.00
514.94	894.00
515.20	900.00
515.45	840.00
515.71	852.00
515.97	886.00
516.23	877.00
516.49	856.00
516.75	851.00
517.01	861.00
517.27	875.00
517.53	853.00
517.78	863.00
518.04	873.00
518.30	863.00
518.56	849.00
518.82	891.00
519.08	917.00
519.34	859.00
519.60	865.00
519.85	867.00
520.11	861.00
520.37	866.00
520.63	850.00
520.89	866.00
521.15	878.00
521.41	877.00
521.66	869.00
521.92	859.00
522.18	886.00
522.44	889.00
522.70	851.00
522.96	823.00
523.22	870.00
523.48	871.00
523.73	861.00
523.99	852.00
524.25	891.00
524.51	896.00
524.77	848.00
525.03	849.00
525.29	871.00
525.54	871.00
525.80	857.00
526.06	860.00
526.32	855.00
526.58	868.00
526.84	838.00
527.09	871.00
527.35	857.00
527.61	863.00
527.87	850.00
528.13	879.00
528.39	860.00
528.65	858.00
528.90	830.00
529.16	855.00
529.42	854.00
529.68	862.00
529.94	845.00
530.20	853.00
530.45	853.00
530.71	860.00
530.97	845.00
531.23	841.00
531.49	872.00
531.75	873.00
532.00	852.00
532.26	837.00
532.52	882.00
532.78	860.00
533.04	837.00
533.30	856.00
533.55	863.00
533.81	875.00
534.07	829.00
534.33	858.00
534.59	888.00
534.85	896.00
535.10	836.00
535.36	845.00
535.62	866.00
535.88	856.00
536.14	831.00
536.39	849.00
536.65	898.00
536.91	890.00
537.17	847.00
537.43	859.00
537.69	923.00
537.94	887.00
538.20	841.00
538.46	862.00
538.72	884.00
538.98	892.00
539.23	852.00
539.49	843.00
539.75	891.00
540.01	885.00
540.27	863.00
540.52	884.00
540.78	884.00
541.04	898.00
541.30	836.00
541.56	825.00
541.81	894.00
542.07	939.00
542.33	866.00
542.59	856.00
542.85	849.00
543.10	863.00
543.36	837.00
543.62	869.00
543.88	858.00
544.14	861.00
544.39	842.00
544.65	868.00
544.91	894.00
545.17	870.00
545.43	841.00
545.68	864.00
545.94	866.00
546.20	883.00
546.46	860.00
546.71	856.00
546.97	886.00
547.23	884.00
547.49	859.00
547.75	864.00
548.00	885.00
548.26	890.00
548.52	837.00
548.78	853.00
549.03	866.00
549.29	863.00
549.55	838.00
549.81	862.00
550.07	880.00
550.32	885.00
550.58	843.00
550.84	852.00
551.10	851.00
551.35	863.00
551.61	849.00
551.87	856.00
552.13	886.00
552.39	876.00
552.64	834.00
552.90	850.00
553.16	878.00
553.42	874.00
553.67	839.00
553.93	829.00
554.19	878.00
554.45	890.00
554.70	864.00
554.96	839.00
555.22	866.00
555.48	882.00
555.73	847.00
555.99	842.00
556.25	890.00
556.51	888.00
556.76	868.00
557.02	868.00
557.28	898.00
557.54	874.00
557.79	849.00
558.05	879.00
558.31	865.00
558.57	885.00
558.82	849.00
559.08	831.00
559.34	838.00
559.60	878.00
559.85	847.00
560.11	861.00
560.37	870.00
560.63	858.00
560.88	831.00
561.14	841.00
561.40	890.00
561.66	872.00
561.91	868.00
562.17	876.00
562.43	891.00
562.68	900.00
562.94	883.00
563.20	884.00
563.46	884.00
563.71	884.00
563.97	838.00
564.23	866.00
564.49	892.00
564.74	868.00
565.00	853.00
565.26	874.00
565.51	882.00
565.77	857.00
566.03	843.00
566.29	863.00
566.54	848.00
566.80	872.00
567.06	848.00
567.31	872.00
567.57	894.00
567.83	857.00
568.09	858.00
568.34	856.00
568.60	875.00
568.86	890.00
569.11	874.00
569.37	855.00
569.63	884.00
569.89	890.00
570.14	822.00
570.40	834.00
570.66	868.00
570.91	878.00
571.17	854.00
571.43	888.00
571.69	907.00
571.94	894.00
572.20	853.00
572.46	870.00
572.71	887.00
572.97	880.00
573.23	831.00
573.48	829.00
573.74	862.00
574.00	887.00
574.26	843.00
574.51	847.00
574.77	874.00
575.03	876.00
575.28	861.00
575.54	842.00
575.80	844.00
576.05	880.00
576.31	847.00
576.57	856.00
576.82	871.00
577.08	891.00
577.34	847.00
577.59	851.00
577.85	877.00
578.11	866.00
578.37	844.00
578.62	858.00
578.88	879.00
579.14	878.00
579.39	858.00
579.65	886.00
579.91	867.00
580.16	872.00
580.42	855.00
580.68	866.00
580.93	902.00
581.19	863.00
581.45	832.00
581.70	876.00
581.96	892.00
582.22	886.00
582.47	864.00
582.73	872.00
582.99	902.00
583.24	878.00
583.50	842.00
583.76	852.00
584.01	868.00
584.27	883.00
584.53	868.00
584.78	878.00
585.04	866.00
585.30	875.00
585.55	862.00
585.81	851.00
586.07	910.00
586.32	899.00
586.58	848.00
586.83	858.00
587.09	887.00
587.35	882.00
587.60	863.00
587.86	862.00
588.12	858.00
588.37	881.00
588.63	860.00
588.89	870.00
589.14	910.00
589.40	905.00
589.66	869.00
589.91	873.00
590.17	882.00
590.43	837.00
590.68	833.00
590.94	861.00
591.19	891.00
591.45	883.00
591.71	857.00
591.96	873.00
592.22	889.00
592.48	911.00
592.73	849.00
592.99	859.00
593.25	877.00
593.50	881.00
593.76	846.00
594.01	863.00
594.27	889.00
594.53	882.00
594.78	848.00
595.04	865.00
595.30	896.00
595.55	886.00
595.81	850.00
596.06	894.00
596.32	924.00
596.58	898.00
596.83	877.00
597.09	903.00
597.35	896.00
597.60	875.00
597.86	840.00
598.11	873.00
598.37	896.00
598.63	901.00
598.88	849.00
599.14	863.00
599.39	906.00
599.65	884.00
599.91	847.00
600.16	861.00
600.42	894.00
600.67	919.00
600.93	866.00
601.19	903.00
601.44	962.00
601.70	927.00
601.95	870.00
602.21	885.00
602.47	891.00
602.72	900.00
602.98	865.00
603.23	879.00
603.49	918.00
603.75	933.00
604.00	876.00
604.26	897.00
604.51	893.00
604.77	925.00
605.03	866.00
605.28	888.00
605.54	937.00
605.79	943.00
606.05	879.00
606.31	896.00
606.56	917.00
606.82	926.00
607.07	924.00
607.33	916.00
607.59	935.00
607.84	926.00
608.10	889.00
608.35	910.00
608.61	944.00
608.86	948.00
609.12	927.00
609.38	952.00
609.63	968.00
609.89	954.00
610.14	912.00
610.40	942.00
610.65	960.00
610.91	941.00
611.17	909.00
611.42	942.00
611.68	962.00
611.93	1003.00
612.19	967.00
612.44	982.00
612.70	1005.00
612.96	958.00
613.21	942.00
613.47	962.00
613.72	988.00
613.98	994.00
614.23	954.00
614.49	993.00
614.75	1009.00
615.00	1006.00
615.26	988.00
615.51	996.00
615.77	1010.00
616.02	1041.00
616.28	1008.00
616.53	1025.00
616.79	1012.00
617.05	1018.00
617.30	997.00
617.56	1003.00
617.81	1048.00
618.07	1065.00
618.32	1058.00
618.58	1102.00
618.83	1108.00
619.09	1111.00
619.34	1078.00
619.60	1117.00
619.86	1160.00
620.11	1200.00
620.37	1149.00
620.62	1157.00
620.88	1227.00
621.13	1243.00
621.39	1219.00
621.64	1236.00
621.90	1283.00
622.15	1311.00
622.41	1300.00
622.66	1330.00
622.92	1357.00
623.18	1396.00
623.43	1364.00
623.69	1350.00
623.94	1394.00
624.20	1427.00
624.45	1465.00
624.71	1542.00
624.96	1606.00
625.22	1631.00
625.47	1630.00
625.73	1638.00
625.98	1668.00
626.24	1694.00
626.49	1725.00
626.75	1756.00
627.00	1765.00
627.26	1779.00
627.51	1736.00
627.77	1835.00
628.02	1953.00
628.28	1954.00
628.53	2062.00
628.79	2278.00
629.05	2446.00
629.30	2522.00
629.56	2389.00
629.81	2369.00
630.07	2442.00
630.32	2426.00
630.58	2433.00
630.83	2656.00
631.09	2810.00
631.34	2950.00
631.60	3027.00
631.85	3255.00
632.11	3523.00
632.36	3437.00
632.62	3346.00
632.87	3429.00
633.13	3550.00
633.38	3677.00
633.64	3685.00
633.89	3720.00
634.15	3738.00
634.40	3901.00
634.66	4177.00
634.91	4303.00
635.17	4163.00
635.42	4154.00
635.68	4207.00
635.93	4404.00
636.18	4663.00
636.44	4438.00
636.69	3886.00
636.95	3683.00
637.20	3925.00
637.46	4264.00
637.71	4476.00
637.97	4355.00
638.22	3967.00
638.48	3625.00
638.73	3726.00
638.99	3840.00
639.24	3732.00
639.50	3542.00
639.75	3404.00
640.01	3284.00
640.26	3303.00
640.52	3218.00
640.77	3130.00
641.03	3013.00
641.28	2724.00
641.54	2614.00
641.79	2445.00
642.04	2345.00
642.30	2417.00
642.55	2417.00
642.81	2453.00
643.06	2513.00
643.32	2472.00
643.57	2281.00
643.83	2056.00
644.08	1933.00
644.34	1923.00
644.59	1930.00
644.85	1828.00
645.10	1809.00
645.35	1687.00
645.61	1622.00
645.86	1569.00
646.12	1548.00
646.37	1634.00
646.63	1629.00
646.88	1515.00
647.14	1434.00
647.39	1374.00
647.65	1352.00
647.90	1291.00
648.15	1264.00
648.41	1275.00
648.66	1274.00
648.92	1198.00
649.17	1214.00
649.43	1224.00
649.68	1212.00
649.94	1212.00
650.19	1185.00
650.44	1156.00
650.70	1121.00
650.95	1061.00
651.21	1083.00
651.46	1092.00
651.72	1071.00
651.97	1010.00
652.23	980.00
652.48	1018.00
652.73	1016.00
652.99	986.00
653.24	973.00
653.50	992.00
653.75	987.00
654.01	959.00
654.26	968.00
654.51	974.00
654.77	987.00
655.02	985.00
655.28	972.00
655.53	972.00
655.79	982.00
656.04	963.00
656.29	939.00
656.55	925.00
656.80	939.00
657.06	899.00
657.31	890.00
657.56	912.00
657.82	901.00
658.07	904.00
658.33	919.00
658.58	921.00
658.84	934.00
659.09	884.00
659.34	885.00
659.60	921.00
659.85	910.00
660.11	885.00
660.36	889.00
660.61	900.00
660.87	873.00
661.12	859.00
661.38	883.00
661.63	907.00
661.88	913.00
662.14	893.00
662.39	886.00
662.65	924.00
662.90	934.00
663.15	869.00
663.41	865.00
663.66	907.00
663.92	947.00
664.17	878.00
664.42	892.00
664.68	907.00
664.93	876.00
665.19	855.00
665.44	869.00
665.69	877.00
665.95	880.00
666.20	845.00
666.45	884.00
666.71	900.00
666.96	898.00
667.22	846.00
667.47	852.00
667.72	866.00
667.98	885.00
668.23	870.00
668.49	892.00
668.74	905.00
668.99	881.00
669.25	846.00
669.50	865.00
669.75	884.00
670.01	877.00
670.26	826.00
670.52	857.00
670.77	881.00
671.02	881.00
671.28	839.00
671.53	854.00
671.78	876.00
672.04	875.00
672.29	864.00
672.54	865.00
672.80	864.00
673.05	878.00
673.31	836.00
673.56	881.00
673.81	905.00
674.07	888.00
674.32	865.00
674.57	862.00
674.83	872.00
675.08	873.00
675.33	862.00
675.59	870.00
675.84	887.00
676.09	875.00
676.35	869.00
676.60	866.00
676.86	873.00
677.11	901.00
677.36	857.00
677.62	863.00
677.87	887.00
678.12	906.00
678.38	860.00
678.63	877.00
678.88	896.00
679.14	899.00
679.39	827.00
679.64	869.00
679.90	869.00
680.15	879.00
680.40	883.00
680.66	868.00
680.91	891.00
681.16	869.00
681.42	834.00
681.67	866.00
681.92	869.00
682.18	889.00
682.43	851.00
682.68	851.00
682.94	877.00
683.19	859.00
683.44	854.00
683.70	879.00
683.95	889.00
684.20	869.00
684.46	860.00
684.71	878.00
684.96	874.00
685.22	875.00
685.47	869.00
685.72	876.00
685.98	880.00
686.23	850.00
686.48	846.00
686.74	882.00
686.99	909.00
687.24	878.00
687.50	847.00
687.75	833.00
688.00	877.00
688.25	904.00
688.51	869.00
688.76	886.00
689.01	867.00
689.27	857.00
689.52	815.00
689.77	862.00
690.03	845.00
690.28	865.00
690.53	882.00
690.79	897.00
691.04	886.00
691.29	877.00
691.54	831.00
691.80	859.00
692.05	878.00
692.30	876.00
692.56	849.00
692.81	864.00
693.06	844.00
693.32	847.00
693.57	861.00
693.82	867.00
694.07	881.00
694.33	877.00
694.58	843.00
694.83	874.00
695.09	872.00
695.34	895.00
695.59	867.00
695.84	863.00
696.10	891.00
696.35	892.00
696.60	833.00
696.86	845.00
697.11	870.00
697.36	880.00
697.61	827.00
697.87	859.00
698.12	866.00
698.37	873.00
698.63	876.00
698.88	856.00
699.13	878.00
699.38	885.00
699.64	825.00
699.89	848.00
700.14	836.00
700.39	857.00
700.65	860.00
700.90	882.00
701.15	857.00
701.40	857.00
701.66	834.00
701.91	850.00
702.16	864.00
702.42	856.00
702.67	834.00
702.92	848.00
703.17	858.00
703.43	857.00
703.68	843.00
703.93	869.00
704.18	904.00
704.44	867.00
704.69	853.00
704.94	859.00
705.19	869.00
705.45	892.00
705.70	859.00
705.95	839.00
706.20	853.00
706.46	899.00
706.71	857.00
706.96	852.00
707.21	872.00
707.47	874.00
707.72	855.00
707.97	869.00
708.22	879.00
708.48	901.00
708.73	850.00
708.98	844.00
709.23	869.00
709.49	873.00
709.74	843.00
709.99	854.00
710.24	846.00
710.50	859.00
710.75	867.00
711.00	876.00
711.25	886.00
711.50	860.00
711.76	842.00
712.01	842.00
712.26	827.00
712.51	873.00
712.77	843.00
713.02	845.00
713.27	845.00
713.52	871.00
713.78	842.00
714.03	858.00
714.28	861.00
714.53	876.00
714.78	851.00
715.04	866.00
715.29	879.00
715.54	886.00
715.79	830.00
716.05	873.00
716.30	883.00
716.55	884.00
716.80	861.00
717.05	873.00
717.31	866.00
717.56	867.00
717.81	858.00
718.06	860.00
718.31	841.00
718.57	879.00
718.82	868.00
719.07	890.00
719.32	862.00
719.57	881.00
719.83	850.00
720.08	857.00
720.33	850.00
720.58	838.00
720.83	821.00
721.09	885.00
721.34	871.00
721.59	892.00
721.84	849.00
722.09	850.00
722.35	859.00
722.60	849.00
722.85	833.00
723.10	867.00
723.35	845.00
723.61	870.00
723.86	851.00
724.11	861.00
724.36	864.00
724.61	846.00
724.87	854.00
725.12	850.00
725.37	862.00
725.62	865.00
725.87	855.00
726.12	847.00
726.38	855.00
726.63	875.00
726.88	842.00
727.13	861.00
727.38	870.00
727.64	888.00
727.89	840.00
728.14	819.00
728.39	848.00
728.64	876.00
728.89	854.00
729.15	861.00
729.40	870.00
729.65	882.00
729.90	826.00
730.15	859.00
730.40	872.00
730.66	866.00
730.91	837.00
731.16	869.00
731.41	887.00
731.66	882.00
731.91	842.00
732.17	873.00
732.42	889.00
732.67	864.00
732.92	834.00
733.17	865.00
733.42	867.00
733.68	878.00
733.93	849.00
734.18	861.00
734.43	849.00
734.68	847.00
734.93	840.00
735.18	866.00
735.44	856.00
735.69	871.00
735.94	826.00
736.19	854.00
736.44	856.00
736.69	905.00
736.95	846.00
737.20	861.00
737.45	886.00
737.70	877.00
737.95	861.00
738.20	887.00
738.45	890.00
738.70	861.00
738.96	845.00
739.21	863.00
739.46	874.00
739.71	887.00
739.96	859.00
740.21	892.00
740.46	930.00
740.72	901.00
740.97	843.00
741.22	871.00
741.47	847.00
741.72	869.00
741.97	834.00
742.22	844.00
742.47	880.00
742.73	880.00
742.98	840.00
743.23	844.00
743.48	825.00
743.73	873.00
743.98	856.00
744.23	857.00
744.48	866.00
744.74	861.00
744.99	844.00
745.24	880.00
745.49	859.00
745.74	875.00
745.99	848.00
746.24	873.00
746.49	852.00
746.74	862.00
747.00	861.00
747.25	862.00
747.50	833.00
747.75	842.00
748.00	820.00
748.25	837.00
748.50	849.00
748.75	875.00
749.00	878.00
749.26	910.00
749.51	876.00
749.76	887.00
750.01	840.00
750.26	854.00
750.51	876.00
750.76	866.00
751.01	840.00
751.26	868.00
751.51	876.00
751.77	873.00
752.02	838.00
752.27	854.00
752.52	852.00
752.77	871.00
753.02	845.00
753.27	871.00
753.52	868.00
753.77	860.00
754.02	842.00
754.27	846.00
754.52	825.00
754.78	861.00
755.03	853.00
755.28	868.00
755.53	854.00
755.78	858.00
756.03	836.00
756.28	872.00
756.53	869.00
756.78	875.00
757.03	851.00
757.28	865.00
757.53	869.00
757.79	834.00
758.04	814.00
758.29	886.00
758.54	880.00
758.79	880.00
759.04	845.00
759.29	840.00
759.54	851.00
759.79	844.00
760.04	849.00
760.29	851.00
760.54	845.00
760.79	863.00
761.04	836.00
761.29	843.00
761.55	845.00
761.80	868.00
762.05	849.00
762.30	865.00
762.55	856.00
762.80	876.00
763.05	868.00
763.30	875.00
763.55	896.00
763.80	885.00
764.05	845.00
764.30	873.00
764.55	887.00
764.80	871.00
765.05	834.00
765.30	856.00
765.55	857.00
765.80	853.00
766.05	833.00
766.30	874.00
766.56	881.00
766.81	883.00
767.06	873.00
767.31	861.00
767.56	867.00
767.81	860.00
768.06	834.00
768.31	876.00
768.56	862.00
768.81	910.00
769.06	841.00
769.31	862.00
769.56	846.00
769.81	869.00
770.06	829.00
770.31	837.00
770.56	871.00
770.81	857.00
771.06	817.00
771.31	857.00
771.56	854.00
771.81	867.00
772.06	842.00
772.31	861.00
772.56	863.00
772.81	865.00
773.06	823.00
773.31	856.00
773.56	860.00
773.81	842.00
774.06	832.00
774.31	848.00
774.56	866.00
774.81	879.00
775.06	860.00
775.31	881.00
775.56	872.00
775.81	844.00
776.06	814.00
776.31	856.00
776.56	853.00
776.82	856.00
777.07	833.00
777.32	845.00
777.57	850.00
777.82	887.00
778.07	853.00
778.32	830.00
778.57	861.00
778.82	900.00
779.07	871.00
779.32	853.00
779.57	830.00
779.82	866.00
780.07	860.00
780.32	867.00
780.56	877.00
780.81	900.00
781.06	825.00
781.31	841.00
781.56	876.00
781.81	869.00
782.06	842.00
782.31	873.00
782.56	878.00
782.81	879.00
783.06	854.00
783.31	866.00
783.56	857.00
783.81	887.00
784.06	852.00
784.31	859.00
784.56	849.00
784.81	885.00
785.06	853.00
785.31	872.00
785.56	837.00
785.81	835.00
786.06	822.00
786.31	865.00
786.56	859.00
786.81	870.00
787.06	873.00
787.31	869.00
787.56	858.00
787.81	846.00
788.06	835.00
788.31	860.00
788.56	859.00
788.81	875.00
789.06	836.00
789.31	852.00
789.56	860.00
789.81	859.00
790.06	836.00
790.31	878.00
790.56	852.00
790.80	852.00
791.05	847.00
791.30	834.00
791.55	845.00
791.80	864.00
792.05	844.00
792.30	843.00
792.55	845.00
792.80	862.00
793.05	830.00
793.30	843.00
793.55	869.00
793.80	855.00
794.05	817.00
794.30	849.00
794.55	848.00
794.80	889.00
795.05	847.00
795.30	850.00
795.54	851.00
795.79	861.00
796.04	833.00
796.29	858.00
796.54	854.00
796.79	878.00
797.04	842.00
797.29	874.00
797.54	891.00
797.79	877.00
798.04	837.00
798.29	844.00
798.54	845.00
798.79	852.00
799.04	828.00
799.29	844.00
799.53	861.00
799.78	868.00
800.03	856.00
800.28	853.00
800.53	834.00
800.78	888.00
801.03	848.00
801.28	861.00
801.53	839.00
801.78	884.00
802.03	844.00
802.28	874.00
802.52	873.00
802.77	885.00
803.02	862.00
803.27	892.00
803.52	838.00
803.77	876.00
804.02	876.00
804.27	879.00
804.52	875.00
804.77	891.00
805.02	855.00
805.27	882.00
805.51	865.00
805.76	883.00
806.01	840.00
806.26	854.00
806.51	861.00
806.76	895.00
807.01	859.00
807.26	854.00
807.51	866.00
807.76	854.00
808.00	826.00
808.25	861.00
808.50	876.00
808.75	858.00
809.00	833.00
809.25	855.00
809.50	852.00
809.75	868.00
810.00	862.00
810.24	835.00
810.49	824.00
810.74	841.00
810.99	853.00
811.24	862.00
811.49	865.00
811.74	880.00
811.99	821.00
812.24	861.00
812.48	837.00
812.73	841.00
812.98	821.00
813.23	840.00
813.48	867.00
813.73	860.00
813.98	810.00
814.23	848.00
814.47	836.00
814.72	839.00
814.97	822.00
815.22	864.00
815.47	850.00
815.72	859.00
815.97	819.00
816.22	858.00
816.46	861.00
816.71	879.00
816.96	860.00
817.21	868.00
817.46	842.00
817.71	865.00
817.96	846.00
818.20	851.00
818.45	843.00
818.70	875.00
818.95	841.00
819.20	853.00
819.45	848.00
819.70	859.00
819.94	835.00
820.19	857.00
820.44	849.00
820.69	882.00
820.94	851.00
821.19	874.00
821.44	914.00
821.68	928.00
821.93	855.00
822.18	862.00
822.43	879.00
822.68	895.00
822.93	840.00
823.17	862.00
823.42	872.00
823.67	840.00
823.92	834.00
824.17	864.00
824.42	870.00
824.67	881.00
824.91	849.00
825.16	847.00
825.41	859.00
825.66	872.00
825.91	843.00
826.16	849.00
826.40	867.00
826.65	866.00
826.90	820.00
827.15	836.00
827.40	855.00
827.65	889.00
827.89	803.00
828.14	838.00
828.39	866.00
828.64	871.00
828.89	839.00
829.13	856.00
829.38	845.00
829.63	870.00
829.88	844.00
830.13	853.00
830.38	844.00
830.62	856.00
830.87	842.00
831.12	875.00
831.37	886.00
831.62	897.00
831.86	852.00
832.11	852.00
832.36	843.00
832.61	883.00
832.86	854.00
833.10	868.00
833.35	870.00
833.60	878.00
833.85	849.00
834.10	877.00
834.35	880.00
834.59	905.00
834.84	862.00
835.09	862.00
835.34	837.00
835.59	866.00
835.83	866.00
836.08	858.00
836.33	870.00
836.58	886.00
836.83	850.00
837.07	871.00
837.32	865.00
837.57	860.00
837.82	841.00
838.06	868.00
838.31	874.00
838.56	893.00
838.81	848.00
839.06	858.00
839.30	855.00
839.55	880.00
839.80	843.00
840.05	872.00
840.30	890.00
840.54	893.00
840.79	838.00
841.04	865.00
841.29	872.00
841.53	871.00
841.78	845.00
842.03	821.00
842.28	833.00
842.53	844.00
842.77	855.00
843.02	873.00
843.27	858.00
843.52	875.00
843.76	842.00
844.01	868.00
844.26	854.00
844.51	878.00
844.75	856.00
845.00	842.00
845.25	857.00
845.50	878.00
845.75	840.00
845.99	871.00
846.24	875.00
846.49	896.00
846.74	840.00
846.98	835.00
847.23	840.00
847.48	866.00
847.73	844.00
847.97	863.00
848.22	878.00
848.47	872.00
848.72	838.00
848.96	845.00
849.21	862.00
849.46	851.00
849.71	853.00
849.95	862.00
850.20	866.00
850.45	874.00
850.70	841.00
850.94	874.00
851.19	848.00
851.44	861.00
851.69	819.00
851.93	842.00
852.18	864.00
852.43	873.00
852.68	862.00
852.92	876.00
853.17	888.00
853.42	897.00
853.66	871.00
853.91	885.00
854.16	860.00
854.41	899.00
854.65	839.00
854.90	837.00
855.15	859.00
855.40	872.00
855.64	856.00
855.89	854.00
856.14	854.00
856.39	849.00
856.63	831.00
856.88	846.00
857.13	845.00
857.37	844.00
857.62	826.00
857.87	840.00
858.12	868.00
858.36	882.00
858.61	817.00
858.86	858.00
859.10	886.00
859.35	868.00
859.60	817.00
859.85	817.00
860.09	825.00
860.34	872.00
860.59	859.00
860.83	856.00
861.08	846.00
861.33	885.00
861.58	849.00
861.82	841.00
862.07	861.00
862.32	868.00
862.56	825.00
862.81	849.00
863.06	858.00
863.30	862.00
863.55	862.00
863.80	845.00
864.05	855.00
864.29	854.00
864.54	850.00
864.79	873.00
865.03	874.00
865.28	880.00
865.53	856.00
865.77	828.00
866.02	849.00
866.27	870.00
866.51	852.00
866.76	836.00
867.01	845.00
867.26	881.00
867.50	854.00
867.75	843.00
868.00	855.00
868.24	869.00
868.49	819.00
868.74	845.00
868.98	836.00
869.23	861.00
869.48	867.00
869.72	862.00
869.97	841.00
870.22	873.00
870.46	840.00
870.71	858.00
870.96	864.00
871.20	881.00
871.45	833.00
871.70	858.00
871.94	872.00
872.19	882.00
872.44	856.00
872.68	849.00
872.93	862.00
873.18	879.00
873.42	839.00
873.67	860.00
873.92	876.00
874.16	855.00
874.41	840.00
874.66	861.00
874.90	875.00
875.15	899.00
875.40	859.00
875.64	866.00
875.89	869.00
876.14	867.00
876.38	850.00
876.63	850.00
876.88	872.00
877.12	869.00
877.37	825.00
877.62	876.00
877.86	849.00
878.11	865.00
878.36	836.00
878.60	850.00
878.85	862.00
879.09	876.00
879.34	845.00
879.59	849.00
879.83	865.00
880.08	883.00
880.33	860.00
880.57	861.00
880.82	873.00
881.07	869.00
881.31	849.00
881.56	851.00
881.80	838.00
882.05	863.00
882.30	819.00
882.54	843.00
882.79	887.00
883.04	906.00
883.28	869.00
883.53	839.00
883.77	858.00
884.02	877.00
884.27	846.00
884.51	844.00
884.76	852.00
885.01	872.00
885.25	825.00
885.50	860.00
885.74	870.00
885.99	878.00
886.24	858.00
886.48	866.00
886.73	880.00
886.98	907.00
887.22	869.00
887.47	870.00
887.71	872.00
887.96	868.00
888.21	858.00
888.45	852.00
888.70	840.00
888.94	889.00
889.19	832.00
889.44	849.00
889.68	865.00
889.93	900.00
890.17	862.00
890.42	856.00
890.67	885.00
890.91	965.00
891.16	869.00
891.40	842.00
891.65	850.00
891.90	878.00
892.14	822.00
892.39	845.00
892.63	858.00
892.88	885.00
893.13	856.00
893.37	842.00
893.62	847.00
893.86	880.00
894.11	834.00
894.36	851.00
894.60	848.00
894.85	839.00
895.09	849.00
895.34	871.00
895.59	848.00
895.83	869.00
896.08	824.00
896.32	849.00
896.57	872.00
896.81	872.00
897.06	843.00
897.31	844.00
897.55	872.00
897.80	867.00
898.04	836.00
898.29	854.00
898.53	856.00
898.78	864.00
899.03	845.00
899.27	844.00
899.52	874.00
899.76	896.00
900.01	840.00
900.25	861.00
900.50	861.00
900.75	877.00
900.99	833.00
901.24	913.00
901.48	874.00
901.73	861.00
901.97	829.00
902.22	853.00
902.47	868.00
902.71	860.00
902.96	835.00
903.20	857.00
903.45	875.00
903.69	872.00
903.94	848.00
904.18	844.00
904.43	861.00
904.68	870.00
904.92	835.00
905.17	856.00
905.41	863.00
905.66	864.00
905.90	861.00
906.15	860.00
906.39	875.00
906.64	854.00
906.88	820.00
907.13	833.00
907.38	882.00
907.62	890.00
907.87	832.00
908.11	866.00
908.36	842.00
908.60	873.00
908.85	807.00
909.09	829.00
909.34	845.00
909.58	873.00
909.83	836.00
910.07	867.00
910.32	900.00
910.56	909.00
910.81	843.00
911.06	862.00
911.30	872.00
911.55	870.00
911.79	839.00
912.04	837.00
912.28	833.00
912.53	873.00
912.77	855.00
913.02	857.00
913.26	846.00
913.51	853.00
913.75	843.00
914.00	857.00
914.24	862.00
914.49	862.00
914.73	817.00
914.98	860.00
915.22	888.00
915.47	873.00
915.71	848.00
915.96	862.00
916.20	866.00
916.45	841.00
916.69	834.00
916.94	858.00
917.18	868.00
917.43	862.00
917.67	839.00
917.92	836.00
918.16	869.00
918.41	875.00
918.65	834.00
918.90	846.00
919.14	832.00
919.39	856.00
919.63	820.00
919.88	836.00
920.12	856.00
920.37	882.00
920.61	839.00
920.86	873.00
921.10	885.00
921.35	855.00
921.59	816.00
921.84	848.00
922.08	873.00
922.33	890.00
922.57	829.00
922.82	828.00
923.06	866.00
923.31	862.00
923.55	825.00
923.80	847.00
924.04	857.00
924.29	880.00
924.53	857.00
924.78	840.00
925.02	839.00
925.27	864.00
925.51	838.00
925.76	857.00
926.00	836.00
926.25	868.00
926.49	849.00
926.73	880.00
926.98	868.00
927.22	899.00
927.47	865.00
927.71	858.00
927.96	876.00
928.20	867.00
928.45	857.00
928.69	888.00
928.94	877.00
929.18	857.00
929.43	858.00
929.67	862.00
929.91	865.00
930.16	868.00
930.40	822.00
930.65	826.00
930.89	860.00
931.14	893.00
931.38	852.00
931.63	868.00
931.87	869.00
932.12	872.00
932.36	843.00
932.60	855.00
932.85	883.00
933.09	854.00
933.34	813.00
933.58	868.00
933.83	861.00
934.07	878.00
934.32	844.00
934.56	862.00
934.80	890.00
935.05	909.00
935.29	869.00
935.54	868.00
935.78	854.00
936.03	859.00
936.27	835.00
936.52	839.00
936.76	854.00
937.00	876.00
937.25	845.00
937.49	857.00
937.74	871.00
937.98	888.00
938.23	828.00
938.47	851.00
938.71	862.00
938.96	864.00
939.20	828.00
939.45	836.00
939.69	844.00
939.94	879.00
940.18	832.00
940.42	856.00
940.67	884.00
940.91	856.00
941.16	835.00
941.40	826.00
941.64	863.00
941.89	874.00
942.13	840.00
942.38	869.00
942.62	928.00
942.87	885.00
943.11	845.00
943.35	834.00
943.60	860.00
943.84	895.00
944.09	850.00
944.33	864.00
944.57	882.00
944.82	862.00
945.06	841.00
945.31	869.00
945.55	849.00
945.79	876.00
946.04	839.00
946.28	847.00
946.53	843.00
946.77	858.00
947.01	811.00
947.26	864.00
947.50	871.00
947.75	866.00
947.99	850.00
948.23	873.00
948.48	862.00
948.72	862.00
948.97	841.00
949.21	848.00
949.45	869.00
949.70	883.00
949.94	838.00
950.18	861.00
950.43	871.00
950.67	862.00
950.92	854.00
951.16	849.00
951.40	842.00
951.65	865.00
951.89	851.00
952.13	868.00
952.38	870.00
952.62	861.00
952.87	835.00
953.11	876.00
953.35	890.00
953.60	877.00
953.84	810.00
954.08	836.00
954.33	836.00
954.57	858.00
954.82	846.00
955.06	845.00
955.30	851.00
955.55	856.00
955.79	845.00
956.03	852.00
956.28	856.00
956.52	863.00
956.76	862.00
957.01	865.00
957.25	851.00
957.50	870.00
957.74	828.00
957.98	825.00
958.23	857.00
958.47	853.00
958.71	852.00
958.96	868.00
959.20	894.00
959.44	867.00
959.69	846.00
959.93	861.00
960.17	854.00
960.42	886.00
960.66	844.00
960.90	861.00
961.15	862.00
961.39	863.00
961.64	833.00
961.88	839.00
962.12	873.00
962.37	872.00
962.61	823.00
962.85	842.00
963.10	868.00
963.34	866.00
963.58	825.00
963.83	839.00
964.07	873.00
964.31	877.00
964.56	858.00
964.80	846.00
965.04	847.00
965.29	865.00
965.53	837.00
965.77	841.00
966.02	831.00
966.26	837.00
966.50	825.00
966.74	877.00
966.99	905.00
967.23	880.00
967.47	866.00
967.72	864.00
967.96	851.00
968.20	867.00
968.45	835.00
968.69	843.00
968.93	850.00
969.18	857.00
969.42	864.00
969.66	865.00
969.91	855.00
970.15	880.00
970.39	839.00
970.64	865.00
970.88	867.00
971.12	874.00
971.36	849.00
971.61	841.00
971.85	852.00
972.09	857.00
972.34	820.00
972.58	858.00
972.82	868.00
973.07	880.00
973.31	827.00
973.55	849.00
973.79	889.00
974.04	896.00
974.28	867.00
974.52	856.00
974.77	857.00
975.01	878.00
975.25	855.00
975.50	859.00
975.74	876.00
975.98	875.00
976.22	844.00
976.47	832.00
976.71	867.00
976.95	887.00
977.20	865.00
977.44	860.00
977.68	869.00
977.92	882.00
978.17	840.00
978.41	840.00
978.65	873.00
978.90	873.00
979.14	853.00
979.38	863.00
979.62	855.00
979.87	833.00
980.11	818.00
980.35	847.00
980.59	866.00
980.84	871.00
981.08	833.00
981.32	836.00
981.57	873.00
981.81	876.00
982.05	854.00
982.29	851.00
982.54	861.00
982.78	865.00
983.02	827.00
983.26	844.00
983.51	888.00
983.75	888.00
983.99	849.00
984.23	860.00
984.48	872.00
984.72	892.00
984.96	828.00
985.20	849.00
985.45	916.00
985.69	881.00
985.93	853.00
986.17	866.00
986.42	862.00
986.66	855.00
986.90	807.00
987.14	823.00
987.39	841.00
987.63	850.00
987.87	839.00
988.11	835.00
988.36	860.00
988.60	876.00
988.84	878.00
989.08	842.00
989.33	886.00
989.57	887.00
989.81	830.00
990.05	833.00
990.30	854.00
990.54	849.00
990.78	843.00
991.02	846.00
991.27	859.00
991.51	866.00
991.75	836.00
991.99	863.00
992.23	857.00
992.48	845.00
992.72	833.00
992.96	851.00
993.20	851.00
993.45	854.00
993.69	864.00
993.93	834.00
994.17	870.00
994.41	875.00
994.66	838.00
994.90	862.00
995.14	894.00
995.38	875.00
995.63	849.00
995.87	843.00
996.11	893.00
996.35	887.00
996.59	835.00
996.84	840.00
997.08	860.00
997.32	869.00
997.56	842.00
997.80	828.00
998.05	848.00
998.29	848.00
998.53	822.00
998.77	849.00
999.01	874.00
999.26	864.00
999.50	834.00
999.74	834.00
999.98	862.00
1000.22	872.00
1000.47	824.00
1000.71	834.00
1000.95	882.00
1001.19	863.00
1001.43	835.00
1001.68	841.00
1001.92	843.00
1002.16	844.00
1002.40	816.00
1002.64	834.00
1002.89	858.00
1003.13	862.00
1003.37	848.00
1003.61	828.00
1003.85	848.00
1004.10	853.00
1004.34	846.00
1004.58	838.00
1004.82	868.00
1005.06	876.00
1005.30	845.00
1005.55	843.00
1005.79	870.00
1006.03	864.00
1006.27	850.00
1006.51	851.00
1006.76	855.00
1007.00	863.00
1007.24	832.00
1007.48	851.00
1007.72	888.00
1007.96	863.00
1008.21	832.00
1008.45	858.00
1008.69	859.00
1008.93	881.00
1009.17	858.00
1009.41	883.00
1009.66	880.00
1009.90	862.00
1010.14	839.00
1010.38	859.00
1010.62	869.00
1010.86	890.00
1011.10	852.00
1011.35	850.00
1011.59	852.00
1011.83	848.00
1012.07	810.00
1012.31	853.00
1012.55	869.00
1012.80	876.00
1013.04	859.00
1013.28	864.00
1013.52	853.00
1013.76	876.00
1014.00	819.00
1014.24	843.00
1014.49	880.00
1014.73	897.00
1014.97	865.00
1015.21	856.00
1015.45	871.00
1015.69	854.00
1015.93	860.00
1016.18	838.00
1016.42	865.00
1016.66	870.00
1016.90	833.00
1017.14	822.00
1017.38	852.00
1017.62	872.00
1017.87	845.00
1018.11	848.00
1018.35	864.00
1018.59	866.00
1018.83	831.00
1019.07	867.00
1019.31	875.00
1019.55	878.00
1019.80	844.00
1020.04	849.00
1020.28	845.00
1020.52	870.00
1020.76	834.00
1021.00	815.00
1021.24	850.00
1021.48	845.00
1021.73	849.00
1021.97	863.00
1022.21	858.00
1022.45	872.00
1022.69	833.00
1022.93	835.00
1023.17	856.00
1023.41	898.00
1023.65	856.00
1023.90	883.00
1024.14	893.00
1024.38	853.00
1024.62	829.00
1024.86	847.00
1025.10	881.00
1025.34	863.00
1025.58	839.00
1025.82	846.00
1026.07	892.00
1026.31	876.00
1026.55	840.00
1026.79	831.00
1027.03	863.00
1027.27	859.00
1027.51	804.00
1027.75	808.00
1027.99	842.00
1028.23	893.00
1028.47	856.00
1028.72	842.00
1028.96	855.00
1029.20	875.00
1029.44	857.00
1029.68	869.00
1029.92	876.00
1030.16	887.00
1030.40	830.00
1030.64	838.00
1030.88	853.00
1031.12	850.00
1031.37	813.00
1031.61	850.00
1031.85	880.00
1032.09	886.00
1032.33	848.00
1032.57	884.00
1032.81	863.00
1033.05	883.00
1033.29	862.00
1033.53	856.00
1033.77	907.00
1034.01	891.00
1034.25	854.00
1034.50	857.00
1034.74	848.00
1034.98	887.00
1035.22	872.00
1035.46	870.00
1035.70	892.00
1035.94	879.00
1036.18	864.00
1036.42	845.00
1036.66	840.00
1036.90	869.00
1037.14	822.00
1037.38	836.00
1037.62	863.00
1037.86	862.00
1038.10	860.00
1038.35	835.00
1038.59	853.00
1038.83	866.00
1039.07	855.00
1039.31	873.00
1039.55	843.00
1039.79	854.00
1040.03	823.00
1040.27	825.00
1040.51	877.00
1040.75	894.00
1040.99	862.00
1041.23	871.00
1041.47	876.00
1041.71	897.00
1041.95	860.00
1042.19	853.00
1042.43	899.00
1042.67	884.00
1042.91	846.00
1043.15	844.00
1043.39	880.00
1043.64	870.00
1043.88	835.00
1044.12	859.00
1044.36	910.00
1044.60	896.00
1044.84	860.00
1045.08	859.00
1045.32	863.00
1045.56	873.00
1045.80	848.00
1046.04	854.00
1046.28	879.00
1046.52	873.00
1046.76	835.00
1047.00	839.00
1047.24	868.00
1047.48	860.00
1047.72	846.00
1047.96	822.00
1048.20	865.00
1048.44	856.00
1048.68	840.00
1048.92	842.00
1049.16	857.00
1049.40	885.00
1049.64	852.00
1049.88	863.00
1050.12	882.00
1050.36	879.00
1050.60	849.00
1050.84	850.00
1051.08	864.00
1051.32	860.00
1051.56	848.00
1051.80	839.00
1052.04	864.00
1052.28	891.00
1052.52	845.00
1052.76	848.00
1053.00	850.00
1053.24	857.00
1053.48	807.00
1053.72	847.00
1053.96	868.00
1054.20	873.00
1054.44	850.00
1054.68	872.00
1054.92	880.00
1055.16	853.00
1055.40	839.00
1055.64	854.00
1055.88	875.00
1056.12	881.00
1056.36	824.00
1056.60	844.00
1056.84	889.00
1057.08	870.00
1057.32	851.00
1057.56	847.00
1057.80	849.00
1058.04	869.00
1058.28	829.00
1058.52	842.00
1058.76	879.00
1059.00	884.00
1059.24	816.00
1059.48	822.00
1059.72	875.00
1059.96	867.00
1060.20	862.00
1060.44	868.00
1060.68	888.00
1060.92	876.00
1061.16	829.00
1061.40	835.00
1061.64	850.00
1061.88	862.00
1062.11	836.00
1062.35	832.00
1062.59	854.00
1062.83	878.00
1063.07	834.00
1063.31	833.00
1063.55	858.00
1063.79	866.00
1064.03	842.00
1064.27	833.00
1064.51	873.00
1064.75	879.00
1064.99	870.00
1065.23	862.00
1065.47	844.00
1065.71	874.00
1065.95	838.00
1066.19	857.00
1066.43	898.00
1066.67	881.00
1066.91	866.00
1067.15	858.00
1067.38	861.00
1067.62	874.00
1067.86	838.00
1068.10	872.00
1068.34	920.00
1068.58	898.00
1068.82	847.00
1069.06	825.00
1069.30	871.00
1069.54	876.00
1069.78	878.00
1070.02	854.00
1070.26	875.00
1070.50	910.00
1070.74	861.00
1070.98	869.00
1071.21	864.00
1071.45	870.00
1071.69	837.00
1071.93	848.00
1072.17	874.00
1072.41	880.00
1072.65	871.00
1072.89	876.00
1073.13	866.00
1073.37	850.00
1073.61	843.00
1073.85	863.00
1074.09	852.00
1074.32	860.00
1074.56	848.00
1074.80	908.00
1075.04	1099.00
1075.28	960.00
1075.52	846.00
1075.76	859.00
1076.00	877.00
1076.24	870.00
1076.48	873.00
1076.72	879.00
1076.96	890.00
1077.19	882.00
1077.43	830.00
1077.67	861.00
1077.91	876.00
1078.15	868.00
1078.39	840.00
1078.63	825.00
1078.87	870.00
1079.11	865.00
1079.35	814.00
1079.58	836.00
1079.82	846.00
1080.06	861.00
1080.30	833.00
1080.54	872.00
1080.78	878.00
1081.02	848.00
1081.26	850.00
1081.50	870.00
1081.74	876.00
1081.97	877.00
1082.21	860.00
1082.45	862.00
1082.69	868.00
1082.93	851.00
1083.17	856.00
1083.41	848.00
1083.65	894.00
1083.88	895.00
1084.12	857.00
1084.36	869.00
1084.60	865.00
1084.84	854.00
1085.08	818.00
1085.32	856.00
1085.56	890.00
1085.80	880.00
1086.03	852.00
1086.27	834.00
1086.51	849.00
1086.75	888.00
1086.99	849.00
1087.23	837.00
1087.47	856.00
1087.70	854.00
1087.94	852.00
1088.18	868.00
1088.42	890.00
1088.66	868.00
1088.90	826.00
1089.14	856.00
1089.38	880.00
1089.61	891.00
1089.85	850.00
1090.09	849.00
1090.33	886.00
1090.57	889.00
1090.81	809.00
1091.05	839.00
1091.28	869.00
1091.52	862.00
1091.76	833.00
1092.00	845.00
1092.24	865.00
1092.48	888.00
1092.71	848.00
1092.95	872.00
1093.19	872.00
1093.43	860.00
1093.67	804.00
1093.91	849.00
1094.15	869.00
1094.38	883.00
1094.62	832.00
1094.86	839.00
1095.10	855.00
1095.34	868.00
1095.58	839.00
1095.81	853.00
1096.05	875.00
1096.29	902.00
1096.53	834.00
1096.77	856.00
1097.01	853.00
1097.24	881.00
1097.48	825.00
1097.72	850.00
1097.96	860.00
1098.20	867.00
1098.44	841.00
1098.67	825.00
1098.91	882.00
1099.15	880.00
1099.39	825.00
1099.63	867.00
1099.86	887.00
1100.10	867.00
1100.34	846.00
1100.58	842.00
1100.82	855.00
1101.06	854.00
1101.29	833.00
1101.53	850.00
1101.77	856.00
1102.01	837.00
1102.25	839.00
1102.48	867.00
1102.72	901.00
1102.96	878.00
1103.20	831.00
1103.44	849.00
1103.67	850.00
1103.91	874.00
1104.15	820.00
1104.39	836.00
1104.63	869.00
1104.86	830.00
1105.10	805.00
1105.34	848.00
1105.58	841.00
1105.82	852.00
1106.05	833.00
1106.29	845.00
1106.53	874.00
1106.77	907.00
1107.01	848.00
1107.24	877.00
1107.48	904.00
1107.72	868.00
1107.96	814.00
1108.20	851.00
1108.43	876.00
1108.67	853.00
1108.91	825.00
1109.15	827.00
1109.39	846.00
1109.62	862.00
1109.86	826.00
1110.10	845.00
1110.34	912.00
1110.57	912.00
1110.81	862.00
1111.05	868.00
1111.29	890.00
1111.53	901.00
1111.76	839.00
1112.00	881.00
1112.24	899.00
1112.48	878.00
1112.71	824.00
1112.95	839.00
1113.19	876.00
1113.43	860.00
1113.66	821.00
1113.90	854.00
1114.14	863.00
1114.38	886.00
1114.62	829.00
1114.85	870.00
1115.09	871.00
1115.33	919.00
1115.57	872.00
1115.80	842.00
1116.04	860.00
1116.28	866.00
1116.52	841.00
1116.75	857.00
1116.99	883.00
1117.23	894.00
1117.47	875.00
1117.70	888.00
1117.94	912.00
1118.18	869.00
1118.42	845.00
1118.65	862.00
1118.89	866.00
1119.13	858.00
1119.37	843.00
1119.60	857.00
1119.84	858.00
>>>>>End Processed Spectral Data<<<<<
