SpectraSuite Data File
++++++++++++++++++++++++++++++++++++
Date: Fri Dec 06 14:53:27 CET 2024
User: student
Dark Spectrum Present: No
Reference Spectrum Present: No
Number of Sampled Component Spectra: 1
Spectrometers: HR4C155
Integration Time (usec): 100000 (HR4C155)
Spectra Averaged: 1 (HR4C155)
Boxcar Smoothing: 0 (HR4C155)
Correct for Electrical Dark: No (HR4C155)
Strobe/Lamp Enabled: No (HR4C155)
Correct for Detector Non-linearity: No (HR4C155)
Correct for Stray Light: No (HR4C155)
Number of Pixels in Processed Spectrum: 3648
>>>>>Begin Processed Spectral Data<<<<<
195.39	722.00
195.66	722.00
195.93	722.00
196.20	656.00
196.46	707.00
196.73	822.00
197.00	821.00
197.27	827.00
197.54	844.00
197.81	849.00
198.08	830.00
198.35	874.00
198.61	892.00
198.88	845.00
199.15	848.00
199.42	858.00
199.69	878.00
199.96	862.00
200.23	885.00
200.49	871.00
200.76	877.00
201.03	878.00
201.30	851.00
201.57	903.00
201.84	923.00
202.11	860.00
202.38	892.00
202.64	898.00
202.91	907.00
203.18	850.00
203.45	919.00
203.72	996.00
203.99	911.00
204.25	918.00
204.52	900.00
204.79	912.00
205.06	921.00
205.33	866.00
205.60	881.00
205.87	917.00
206.13	937.00
206.40	900.00
206.67	885.00
206.94	914.00
207.21	903.00
207.48	881.00
207.75	880.00
208.01	917.00
208.28	907.00
208.55	865.00
208.82	886.00
209.09	901.00
209.36	934.00
209.62	891.00
209.89	910.00
210.16	916.00
210.43	937.00
210.70	874.00
210.97	898.00
211.23	920.00
211.50	930.00
211.77	888.00
212.04	877.00
212.31	899.00
212.58	925.00
212.84	893.00
213.11	897.00
213.38	873.00
213.65	906.00
213.92	882.00
214.18	889.00
214.45	935.00
214.72	932.00
214.99	874.00
215.26	890.00
215.53	897.00
215.79	936.00
216.06	923.00
216.33	903.00
216.60	883.00
216.87	933.00
217.13	856.00
217.40	873.00
217.67	917.00
217.94	930.00
218.21	876.00
218.48	909.00
218.74	950.00
219.01	918.00
219.28	862.00
219.55	866.00
219.82	877.00
220.08	912.00
220.35	878.00
220.62	893.00
220.89	929.00
221.16	951.00
221.42	909.00
221.69	899.00
221.96	921.00
222.23	931.00
222.50	923.00
222.76	948.00
223.03	905.00
223.30	877.00
223.57	860.00
223.84	858.00
224.10	889.00
224.37	901.00
224.64	862.00
224.91	873.00
225.18	929.00
225.44	919.00
225.71	879.00
225.98	904.00
226.25	920.00
226.51	935.00
226.78	892.00
227.05	885.00
227.32	899.00
227.59	908.00
227.85	890.00
228.12	888.00
228.39	931.00
228.66	940.00
228.92	935.00
229.19	906.00
229.46	899.00
229.73	873.00
230.00	868.00
230.26	896.00
230.53	934.00
230.80	914.00
231.07	850.00
231.33	867.00
231.60	894.00
231.87	920.00
232.14	891.00
232.41	926.00
232.67	901.00
232.94	917.00
233.21	871.00
233.48	878.00
233.74	898.00
234.01	899.00
234.28	874.00
234.55	891.00
234.81	891.00
235.08	937.00
235.35	894.00
235.62	877.00
235.88	890.00
236.15	925.00
236.42	897.00
236.69	916.00
236.95	919.00
237.22	918.00
237.49	885.00
237.76	893.00
238.02	941.00
238.29	940.00
238.56	883.00
238.83	883.00
239.09	894.00
239.36	936.00
239.63	892.00
239.90	903.00
240.16	939.00
240.43	952.00
240.70	896.00
240.97	891.00
241.23	902.00
241.50	918.00
241.77	891.00
242.04	879.00
242.30	880.00
242.57	905.00
242.84	884.00
243.11	881.00
243.37	861.00
243.64	918.00
243.91	883.00
244.18	881.00
244.44	881.00
244.71	865.00
244.98	865.00
245.24	876.00
245.51	909.00
245.78	941.00
246.05	874.00
246.31	883.00
246.58	900.00
246.85	896.00
247.12	883.00
247.38	911.00
247.65	917.00
247.92	934.00
248.18	882.00
248.45	883.00
248.72	880.00
248.99	906.00
249.25	876.00
249.52	885.00
249.79	901.00
250.05	919.00
250.32	886.00
250.59	877.00
250.86	901.00
251.12	888.00
251.39	860.00
251.66	876.00
251.92	915.00
252.19	918.00
252.46	885.00
252.73	915.00
252.99	919.00
253.26	937.00
253.53	872.00
253.79	893.00
254.06	911.00
254.33	889.00
254.60	866.00
254.86	869.00
255.13	908.00
255.40	925.00
255.66	875.00
255.93	890.00
256.20	906.00
256.46	929.00
256.73	887.00
257.00	907.00
257.26	910.00
257.53	908.00
257.80	914.00
258.07	913.00
258.33	966.00
258.60	936.00
258.87	882.00
259.13	898.00
259.40	885.00
259.67	925.00
259.93	884.00
260.20	893.00
260.47	913.00
260.73	881.00
261.00	878.00
261.27	906.00
261.53	931.00
261.80	912.00
262.07	858.00
262.34	862.00
262.60	852.00
262.87	904.00
263.14	875.00
263.40	915.00
263.67	883.00
263.94	889.00
264.20	884.00
264.47	872.00
264.74	863.00
265.00	887.00
265.27	851.00
265.54	884.00
265.80	920.00
266.07	933.00
266.34	885.00
266.60	883.00
266.87	901.00
267.14	910.00
267.40	877.00
267.67	861.00
267.94	917.00
268.20	916.00
268.47	876.00
268.74	867.00
269.00	903.00
269.27	892.00
269.54	852.00
269.80	881.00
270.07	917.00
270.33	888.00
270.60	864.00
270.87	888.00
271.13	893.00
271.40	903.00
271.67	845.00
271.93	843.00
272.20	892.00
272.47	871.00
272.73	839.00
273.00	868.00
273.27	889.00
273.53	932.00
273.80	895.00
274.07	872.00
274.33	892.00
274.60	906.00
274.86	875.00
275.13	873.00
275.40	879.00
275.66	931.00
275.93	876.00
276.20	873.00
276.46	866.00
276.73	859.00
277.00	883.00
277.26	875.00
277.53	891.00
277.79	902.00
278.06	868.00
278.33	922.00
278.59	916.00
278.86	884.00
279.13	884.00
279.39	901.00
279.66	919.00
279.93	918.00
280.19	876.00
280.46	888.00
280.72	887.00
280.99	904.00
281.26	861.00
281.52	879.00
281.79	901.00
282.05	916.00
282.32	884.00
282.59	891.00
282.85	928.00
283.12	919.00
283.39	888.00
283.65	902.00
283.92	909.00
284.18	926.00
284.45	887.00
284.72	900.00
284.98	893.00
285.25	892.00
285.51	905.00
285.78	908.00
286.05	900.00
286.31	899.00
286.58	861.00
286.84	863.00
287.11	884.00
287.38	911.00
287.64	897.00
287.91	891.00
288.17	903.00
288.44	903.00
288.71	841.00
288.97	876.00
289.24	903.00
289.50	884.00
289.77	903.00
290.04	872.00
290.30	868.00
290.57	922.00
290.83	876.00
291.10	883.00
291.37	897.00
291.63	902.00
291.90	907.00
292.16	885.00
292.43	903.00
292.70	886.00
292.96	845.00
293.23	874.00
293.49	870.00
293.76	912.00
294.02	879.00
294.29	877.00
294.56	908.00
294.82	920.00
295.09	883.00
295.35	870.00
295.62	920.00
295.89	936.00
296.15	869.00
296.42	860.00
296.68	888.00
296.95	890.00
297.21	887.00
297.48	883.00
297.75	905.00
298.01	939.00
298.28	871.00
298.54	883.00
298.81	906.00
299.07	907.00
299.34	861.00
299.61	891.00
299.87	909.00
300.14	908.00
300.40	903.00
300.67	895.00
300.93	903.00
301.20	933.00
301.46	866.00
301.73	863.00
302.00	901.00
302.26	893.00
302.53	892.00
302.79	885.00
303.06	910.00
303.32	951.00
303.59	870.00
303.85	871.00
304.12	877.00
304.39	890.00
304.65	871.00
304.92	884.00
305.18	893.00
305.45	903.00
305.71	879.00
305.98	890.00
306.24	897.00
306.51	886.00
306.77	879.00
307.04	893.00
307.31	912.00
307.57	931.00
307.84	855.00
308.10	886.00
308.37	863.00
308.63	882.00
308.90	871.00
309.16	892.00
309.43	904.00
309.69	898.00
309.96	884.00
310.22	859.00
310.49	902.00
310.76	911.00
311.02	876.00
311.29	873.00
311.55	893.00
311.82	900.00
312.08	892.00
312.35	895.00
312.61	910.00
312.88	917.00
313.14	882.00
313.41	857.00
313.67	867.00
313.94	899.00
314.20	883.00
314.47	898.00
314.73	885.00
315.00	881.00
315.26	863.00
315.53	903.00
315.79	912.00
316.06	905.00
316.32	873.00
316.59	897.00
316.85	883.00
317.12	902.00
317.39	856.00
317.65	873.00
317.92	882.00
318.18	901.00
318.45	869.00
318.71	923.00
318.98	924.00
319.24	901.00
319.51	878.00
319.77	878.00
320.04	869.00
320.30	882.00
320.57	862.00
320.83	871.00
321.10	870.00
321.36	888.00
321.63	864.00
321.89	866.00
322.16	926.00
322.42	927.00
322.69	871.00
322.95	864.00
323.22	895.00
323.48	914.00
323.75	860.00
324.01	882.00
324.28	907.00
324.54	922.00
324.80	873.00
325.07	886.00
325.33	909.00
325.60	884.00
325.86	858.00
326.13	882.00
326.39	886.00
326.66	875.00
326.92	844.00
327.19	873.00
327.45	912.00
327.72	919.00
327.98	854.00
328.25	876.00
328.51	903.00
328.78	905.00
329.04	870.00
329.31	889.00
329.57	875.00
329.84	867.00
330.10	855.00
330.37	882.00
330.63	910.00
330.89	928.00
331.16	867.00
331.42	868.00
331.69	911.00
331.95	905.00
332.22	902.00
332.48	924.00
332.75	907.00
333.01	876.00
333.28	864.00
333.54	884.00
333.81	893.00
334.07	917.00
334.34	892.00
334.60	887.00
334.86	929.00
335.13	919.00
335.39	903.00
335.66	873.00
335.92	907.00
336.19	896.00
336.45	837.00
336.72	873.00
336.98	876.00
337.24	904.00
337.51	866.00
337.77	878.00
338.04	885.00
338.30	887.00
338.57	867.00
338.83	884.00
339.10	879.00
339.36	890.00
339.63	877.00
339.89	844.00
340.15	885.00
340.42	921.00
340.68	900.00
340.95	885.00
341.21	885.00
341.48	897.00
341.74	849.00
342.00	858.00
342.27	894.00
342.53	901.00
342.80	873.00
343.06	883.00
343.33	884.00
343.59	911.00
343.85	873.00
344.12	889.00
344.38	963.00
344.65	933.00
344.91	879.00
345.18	870.00
345.44	889.00
345.70	894.00
345.97	857.00
346.23	880.00
346.50	885.00
346.76	897.00
347.03	891.00
347.29	872.00
347.55	878.00
347.82	878.00
348.08	838.00
348.35	865.00
348.61	932.00
348.87	914.00
349.14	860.00
349.40	870.00
349.67	906.00
349.93	896.00
350.20	882.00
350.46	893.00
350.72	921.00
350.99	891.00
351.25	872.00
351.52	865.00
351.78	891.00
352.04	889.00
352.31	873.00
352.57	879.00
352.84	879.00
353.10	891.00
353.36	881.00
353.63	870.00
353.89	879.00
354.16	905.00
354.42	881.00
354.68	894.00
354.95	926.00
355.21	906.00
355.48	852.00
355.74	888.00
356.00	918.00
356.27	933.00
356.53	858.00
356.80	851.00
357.06	903.00
357.32	896.00
357.59	891.00
357.85	898.00
358.11	935.00
358.38	930.00
358.64	882.00
358.91	880.00
359.17	897.00
359.43	905.00
359.70	889.00
359.96	881.00
360.22	915.00
360.49	879.00
360.75	876.00
361.02	871.00
361.28	874.00
361.54	908.00
361.81	857.00
362.07	875.00
362.33	885.00
362.60	889.00
362.86	863.00
363.13	891.00
363.39	912.00
363.65	918.00
363.92	837.00
364.18	852.00
364.44	898.00
364.71	908.00
364.97	881.00
365.24	873.00
365.50	909.00
365.76	906.00
366.03	872.00
366.29	889.00
366.55	900.00
366.82	891.00
367.08	854.00
367.34	883.00
367.61	896.00
367.87	905.00
368.13	881.00
368.40	886.00
368.66	931.00
368.93	918.00
369.19	845.00
369.45	867.00
369.72	894.00
369.98	874.00
370.24	850.00
370.51	866.00
370.77	884.00
371.03	906.00
371.30	872.00
371.56	889.00
371.82	904.00
372.09	905.00
372.35	901.00
372.61	883.00
372.88	885.00
373.14	906.00
373.40	884.00
373.67	874.00
373.93	900.00
374.19	916.00
374.46	880.00
374.72	886.00
374.98	900.00
375.25	904.00
375.51	880.00
375.77	909.00
376.04	905.00
376.30	916.00
376.56	873.00
376.83	886.00
377.09	906.00
377.35	897.00
377.62	881.00
377.88	870.00
378.14	872.00
378.41	900.00
378.67	887.00
378.93	868.00
379.20	905.00
379.46	874.00
379.72	852.00
379.99	871.00
380.25	885.00
380.51	866.00
380.77	854.00
381.04	874.00
381.30	915.00
381.56	927.00
381.83	893.00
382.09	855.00
382.35	863.00
382.62	907.00
382.88	894.00
383.14	876.00
383.41	872.00
383.67	876.00
383.93	888.00
384.20	890.00
384.46	898.00
384.72	921.00
384.98	881.00
385.25	890.00
385.51	911.00
385.77	892.00
386.04	857.00
386.30	857.00
386.56	910.00
386.82	953.00
387.09	871.00
387.35	899.00
387.61	967.00
387.88	924.00
388.14	874.00
388.40	882.00
388.67	886.00
388.93	905.00
389.19	876.00
389.45	867.00
389.72	885.00
389.98	910.00
390.24	882.00
390.51	863.00
390.77	895.00
391.03	901.00
391.29	855.00
391.56	877.00
391.82	901.00
392.08	910.00
392.35	863.00
392.61	876.00
392.87	902.00
393.13	914.00
393.40	872.00
393.66	873.00
393.92	904.00
394.18	913.00
394.45	868.00
394.71	869.00
394.97	888.00
395.24	884.00
395.50	851.00
395.76	887.00
396.02	920.00
396.29	892.00
396.55	828.00
396.81	802.00
397.07	871.00
397.34	865.00
397.60	864.00
397.86	861.00
398.12	882.00
398.39	917.00
398.65	877.00
398.91	881.00
399.17	900.00
399.44	857.00
399.70	811.00
399.96	848.00
400.22	862.00
400.49	914.00
400.75	870.00
401.01	856.00
401.27	879.00
401.54	906.00
401.80	880.00
402.06	866.00
402.32	901.00
402.59	882.00
402.85	865.00
403.11	881.00
403.37	874.00
403.64	905.00
403.90	858.00
404.16	871.00
404.42	884.00
404.69	877.00
404.95	853.00
405.21	838.00
405.47	858.00
405.74	885.00
406.00	857.00
406.26	870.00
406.52	884.00
406.79	898.00
407.05	855.00
407.31	869.00
407.57	869.00
407.83	887.00
408.10	833.00
408.36	850.00
408.62	872.00
408.88	881.00
409.15	860.00
409.41	836.00
409.67	857.00
409.93	918.00
410.20	886.00
410.46	876.00
410.72	892.00
410.98	890.00
411.24	874.00
411.51	872.00
411.77	865.00
412.03	914.00
412.29	888.00
412.55	891.00
412.82	879.00
413.08	903.00
413.34	894.00
413.60	881.00
413.87	891.00
414.13	891.00
414.39	839.00
414.65	878.00
414.91	901.00
415.18	871.00
415.44	846.00
415.70	851.00
415.96	875.00
416.22	880.00
416.49	851.00
416.75	853.00
417.01	874.00
417.27	884.00
417.53	881.00
417.80	880.00
418.06	912.00
418.32	898.00
418.58	857.00
418.84	859.00
419.11	903.00
419.37	900.00
419.63	866.00
419.89	864.00
420.15	892.00
420.42	881.00
420.68	843.00
420.94	864.00
421.20	884.00
421.46	893.00
421.72	882.00
421.99	893.00
422.25	901.00
422.51	899.00
422.77	878.00
423.03	884.00
423.30	882.00
423.56	901.00
423.82	900.00
424.08	886.00
424.34	892.00
424.60	907.00
424.87	869.00
425.13	871.00
425.39	862.00
425.65	892.00
425.91	859.00
426.18	889.00
426.44	892.00
426.70	865.00
426.96	833.00
427.22	846.00
427.48	878.00
427.75	883.00
428.01	857.00
428.27	874.00
428.53	888.00
428.79	872.00
429.05	852.00
429.32	872.00
429.58	920.00
429.84	875.00
430.10	883.00
430.36	871.00
430.62	890.00
430.88	903.00
431.15	880.00
431.41	881.00
431.67	900.00
431.93	880.00
432.19	826.00
432.45	883.00
432.72	888.00
432.98	891.00
433.24	913.00
433.50	977.00
433.76	887.00
434.02	873.00
434.28	859.00
434.55	872.00
434.81	891.00
435.07	887.00
435.33	841.00
435.59	851.00
435.85	884.00
436.11	893.00
436.38	840.00
436.64	850.00
436.90	872.00
437.16	890.00
437.42	873.00
437.68	859.00
437.94	883.00
438.21	903.00
438.47	913.00
438.73	881.00
438.99	891.00
439.25	902.00
439.51	858.00
439.77	883.00
440.03	872.00
440.30	888.00
440.56	870.00
440.82	885.00
441.08	901.00
441.34	889.00
441.60	854.00
441.86	890.00
442.12	899.00
442.39	873.00
442.65	830.00
442.91	844.00
443.17	865.00
443.43	892.00
443.69	882.00
443.95	860.00
444.21	869.00
444.47	893.00
444.74	830.00
445.00	864.00
445.26	866.00
445.52	886.00
445.78	871.00
446.04	859.00
446.30	904.00
446.56	893.00
446.82	848.00
447.09	876.00
447.35	893.00
447.61	906.00
447.87	864.00
448.13	866.00
448.39	929.00
448.65	906.00
448.91	868.00
449.17	878.00
449.43	877.00
449.70	872.00
449.96	846.00
450.22	841.00
450.48	867.00
450.74	894.00
451.00	857.00
451.26	873.00
451.52	889.00
451.78	872.00
452.04	854.00
452.31	887.00
452.57	901.00
452.83	879.00
453.09	858.00
453.35	873.00
453.61	898.00
453.87	891.00
454.13	903.00
454.39	913.00
454.65	935.00
454.91	926.00
455.17	854.00
455.44	874.00
455.70	893.00
455.96	891.00
456.22	844.00
456.48	850.00
456.74	884.00
457.00	869.00
457.26	826.00
457.52	847.00
457.78	887.00
458.04	877.00
458.30	847.00
458.56	876.00
458.82	873.00
459.09	871.00
459.35	811.00
459.61	841.00
459.87	876.00
460.13	894.00
460.39	859.00
460.65	840.00
460.91	904.00
461.17	874.00
461.43	834.00
461.69	843.00
461.95	888.00
462.21	887.00
462.47	857.00
462.73	890.00
462.99	913.00
463.26	900.00
463.52	846.00
463.78	842.00
464.04	877.00
464.30	882.00
464.56	860.00
464.82	876.00
465.08	905.00
465.34	925.00
465.60	875.00
465.86	867.00
466.12	880.00
466.38	858.00
466.64	852.00
466.90	861.00
467.16	904.00
467.42	905.00
467.68	846.00
467.94	871.00
468.20	906.00
468.46	888.00
468.72	871.00
468.98	884.00
469.25	894.00
469.51	870.00
469.77	868.00
470.03	873.00
470.29	878.00
470.55	883.00
470.81	861.00
471.07	872.00
471.33	891.00
471.59	907.00
471.85	870.00
472.11	893.00
472.37	903.00
472.63	872.00
472.89	877.00
473.15	876.00
473.41	901.00
473.67	895.00
473.93	854.00
474.19	841.00
474.45	864.00
474.71	873.00
474.97	865.00
475.23	856.00
475.49	860.00
475.75	866.00
476.01	877.00
476.27	890.00
476.53	901.00
476.79	893.00
477.05	864.00
477.31	882.00
477.57	915.00
477.83	894.00
478.09	850.00
478.35	875.00
478.61	907.00
478.87	883.00
479.13	843.00
479.39	892.00
479.65	894.00
479.91	900.00
480.17	872.00
480.43	887.00
480.69	871.00
480.95	890.00
481.21	856.00
481.47	862.00
481.73	867.00
481.99	891.00
482.25	854.00
482.51	854.00
482.77	903.00
483.03	880.00
483.29	877.00
483.55	884.00
483.81	903.00
484.07	874.00
484.33	847.00
484.59	877.00
484.85	906.00
485.11	889.00
485.37	868.00
485.63	865.00
485.89	860.00
486.15	871.00
486.41	843.00
486.67	870.00
486.93	878.00
487.19	864.00
487.45	843.00
487.71	854.00
487.97	905.00
488.23	911.00
488.49	858.00
488.75	845.00
489.01	893.00
489.27	911.00
489.53	859.00
489.79	863.00
490.05	880.00
490.31	913.00
490.57	901.00
490.83	931.00
491.08	886.00
491.34	855.00
491.60	840.00
491.86	890.00
492.12	925.00
492.38	911.00
492.64	855.00
492.90	846.00
493.16	898.00
493.42	878.00
493.68	845.00
493.94	866.00
494.20	860.00
494.46	873.00
494.72	842.00
494.98	855.00
495.24	876.00
495.50	883.00
495.76	876.00
496.02	889.00
496.28	884.00
496.54	879.00
496.80	855.00
497.05	850.00
497.31	883.00
497.57	891.00
497.83	852.00
498.09	879.00
498.35	917.00
498.61	897.00
498.87	878.00
499.13	877.00
499.39	890.00
499.65	882.00
499.91	877.00
500.17	855.00
500.43	941.00
500.69	970.00
500.95	878.00
501.20	887.00
501.46	902.00
501.72	895.00
501.98	899.00
502.24	897.00
502.50	910.00
502.76	877.00
503.02	863.00
503.28	878.00
503.54	930.00
503.80	933.00
504.06	877.00
504.32	876.00
504.58	869.00
504.83	872.00
505.09	850.00
505.35	869.00
505.61	857.00
505.87	870.00
506.13	871.00
506.39	862.00
506.65	909.00
506.91	921.00
507.17	855.00
507.43	862.00
507.68	890.00
507.94	894.00
508.20	840.00
508.46	844.00
508.72	895.00
508.98	912.00
509.24	846.00
509.50	881.00
509.76	870.00
510.02	874.00
510.28	848.00
510.53	866.00
510.79	892.00
511.05	882.00
511.31	853.00
511.57	853.00
511.83	875.00
512.09	903.00
512.35	856.00
512.61	873.00
512.87	873.00
513.12	886.00
513.38	835.00
513.64	868.00
513.90	889.00
514.16	921.00
514.42	867.00
514.68	876.00
514.94	915.00
515.20	900.00
515.45	850.00
515.71	858.00
515.97	878.00
516.23	883.00
516.49	870.00
516.75	865.00
517.01	878.00
517.27	870.00
517.53	838.00
517.78	862.00
518.04	877.00
518.30	869.00
518.56	863.00
518.82	897.00
519.08	896.00
519.34	858.00
519.60	852.00
519.85	882.00
520.11	881.00
520.37	878.00
520.63	858.00
520.89	883.00
521.15	872.00
521.41	862.00
521.66	859.00
521.92	879.00
522.18	899.00
522.44	912.00
522.70	867.00
522.96	841.00
523.22	879.00
523.48	885.00
523.73	851.00
523.99	858.00
524.25	909.00
524.51	899.00
524.77	855.00
525.03	859.00
525.29	864.00
525.54	885.00
525.80	861.00
526.06	858.00
526.32	879.00
526.58	883.00
526.84	872.00
527.09	867.00
527.35	864.00
527.61	869.00
527.87	851.00
528.13	878.00
528.39	884.00
528.65	870.00
528.90	826.00
529.16	850.00
529.42	857.00
529.68	882.00
529.94	849.00
530.20	857.00
530.45	855.00
530.71	872.00
530.97	843.00
531.23	866.00
531.49	880.00
531.75	876.00
532.00	852.00
532.26	850.00
532.52	890.00
532.78	880.00
533.04	855.00
533.30	858.00
533.55	858.00
533.81	884.00
534.07	841.00
534.33	839.00
534.59	882.00
534.85	902.00
535.10	845.00
535.36	828.00
535.62	879.00
535.88	870.00
536.14	832.00
536.39	849.00
536.65	901.00
536.91	897.00
537.17	848.00
537.43	877.00
537.69	919.00
537.94	894.00
538.20	840.00
538.46	868.00
538.72	884.00
538.98	885.00
539.23	841.00
539.49	838.00
539.75	903.00
540.01	885.00
540.27	858.00
540.52	908.00
540.78	890.00
541.04	894.00
541.30	839.00
541.56	840.00
541.81	902.00
542.07	945.00
542.33	874.00
542.59	873.00
542.85	881.00
543.10	874.00
543.36	854.00
543.62	878.00
543.88	867.00
544.14	872.00
544.39	853.00
544.65	863.00
544.91	913.00
545.17	887.00
545.43	858.00
545.68	866.00
545.94	878.00
546.20	887.00
546.46	869.00
546.71	858.00
546.97	879.00
547.23	880.00
547.49	866.00
547.75	863.00
548.00	902.00
548.26	911.00
548.52	838.00
548.78	834.00
549.03	851.00
549.29	870.00
549.55	845.00
549.81	866.00
550.07	889.00
550.32	883.00
550.58	845.00
550.84	857.00
551.10	879.00
551.35	873.00
551.61	853.00
551.87	862.00
552.13	900.00
552.39	873.00
552.64	821.00
552.90	849.00
553.16	886.00
553.42	882.00
553.67	860.00
553.93	861.00
554.19	895.00
554.45	916.00
554.70	882.00
554.96	844.00
555.22	877.00
555.48	912.00
555.73	859.00
555.99	857.00
556.25	901.00
556.51	887.00
556.76	861.00
557.02	897.00
557.28	900.00
557.54	856.00
557.79	846.00
558.05	875.00
558.31	864.00
558.57	900.00
558.82	848.00
559.08	837.00
559.34	848.00
559.60	885.00
559.85	867.00
560.11	876.00
560.37	880.00
560.63	852.00
560.88	845.00
561.14	853.00
561.40	894.00
561.66	865.00
561.91	866.00
562.17	874.00
562.43	894.00
562.68	907.00
562.94	868.00
563.20	884.00
563.46	902.00
563.71	913.00
563.97	855.00
564.23	870.00
564.49	893.00
564.74	895.00
565.00	858.00
565.26	865.00
565.51	873.00
565.77	855.00
566.03	838.00
566.29	870.00
566.54	847.00
566.80	854.00
567.06	840.00
567.31	878.00
567.57	917.00
567.83	877.00
568.09	862.00
568.34	851.00
568.60	873.00
568.86	910.00
569.11	877.00
569.37	864.00
569.63	891.00
569.89	901.00
570.14	835.00
570.40	841.00
570.66	880.00
570.91	865.00
571.17	852.00
571.43	889.00
571.69	901.00
571.94	899.00
572.20	844.00
572.46	863.00
572.71	899.00
572.97	886.00
573.23	836.00
573.48	866.00
573.74	878.00
574.00	903.00
574.26	851.00
574.51	867.00
574.77	897.00
575.03	865.00
575.28	845.00
575.54	851.00
575.80	865.00
576.05	878.00
576.31	837.00
576.57	848.00
576.82	884.00
577.08	881.00
577.34	847.00
577.59	874.00
577.85	897.00
578.11	873.00
578.37	853.00
578.62	834.00
578.88	879.00
579.14	900.00
579.39	874.00
579.65	880.00
579.91	864.00
580.16	893.00
580.42	862.00
580.68	868.00
580.93	899.00
581.19	868.00
581.45	841.00
581.70	868.00
581.96	900.00
582.22	910.00
582.47	878.00
582.73	869.00
582.99	883.00
583.24	894.00
583.50	856.00
583.76	875.00
584.01	870.00
584.27	882.00
584.53	842.00
584.78	861.00
585.04	850.00
585.30	874.00
585.55	868.00
585.81	853.00
586.07	900.00
586.32	896.00
586.58	861.00
586.83	866.00
587.09	877.00
587.35	868.00
587.60	840.00
587.86	840.00
588.12	865.00
588.37	882.00
588.63	867.00
588.89	877.00
589.14	900.00
589.40	898.00
589.66	857.00
589.91	885.00
590.17	899.00
590.43	847.00
590.68	829.00
590.94	868.00
591.19	900.00
591.45	877.00
591.71	843.00
591.96	867.00
592.22	886.00
592.48	901.00
592.73	845.00
592.99	861.00
593.25	884.00
593.50	908.00
593.76	854.00
594.01	859.00
594.27	913.00
594.53	911.00
594.78	856.00
595.04	864.00
595.30	882.00
595.55	886.00
595.81	850.00
596.06	883.00
596.32	921.00
596.58	908.00
596.83	862.00
597.09	890.00
597.35	898.00
597.60	883.00
597.86	848.00
598.11	870.00
598.37	909.00
598.63	908.00
598.88	875.00
599.14	876.00
599.39	923.00
599.65	881.00
599.91	835.00
600.16	859.00
600.42	888.00
600.67	915.00
600.93	871.00
601.19	900.00
601.44	939.00
601.70	918.00
601.95	869.00
602.21	893.00
602.47	898.00
602.72	909.00
602.98	853.00
603.23	877.00
603.49	910.00
603.75	921.00
604.00	880.00
604.26	884.00
604.51	875.00
604.77	912.00
605.03	864.00
605.28	880.00
605.54	924.00
605.79	936.00
606.05	861.00
606.31	854.00
606.56	907.00
606.82	929.00
607.07	905.00
607.33	900.00
607.59	930.00
607.84	892.00
608.10	871.00
608.35	900.00
608.61	927.00
608.86	939.00
609.12	895.00
609.38	923.00
609.63	957.00
609.89	919.00
610.14	881.00
610.40	893.00
610.65	921.00
610.91	922.00
611.17	893.00
611.42	898.00
611.68	937.00
611.93	947.00
612.19	932.00
612.44	936.00
612.70	939.00
612.96	913.00
613.21	888.00
613.47	906.00
613.72	927.00
613.98	975.00
614.23	935.00
614.49	939.00
614.75	952.00
615.00	954.00
615.26	948.00
615.51	947.00
615.77	971.00
616.02	976.00
616.28	946.00
616.53	949.00
616.79	980.00
617.05	956.00
617.30	949.00
617.56	980.00
617.81	1018.00
618.07	1020.00
618.32	982.00
618.58	1018.00
618.83	1019.00
619.09	1021.00
619.34	988.00
619.60	998.00
619.86	1037.00
620.11	1049.00
620.37	1013.00
620.62	1017.00
620.88	1042.00
621.13	1049.00
621.39	1025.00
621.64	1039.00
621.90	1036.00
622.15	1039.00
622.41	1022.00
622.66	1047.00
622.92	1096.00
623.18	1129.00
623.43	1099.00
623.69	1088.00
623.94	1113.00
624.20	1146.00
624.45	1109.00
624.71	1114.00
624.96	1124.00
625.22	1170.00
625.47	1157.00
625.73	1157.00
625.98	1185.00
626.24	1165.00
626.49	1153.00
626.75	1198.00
627.00	1268.00
627.26	1304.00
627.51	1305.00
627.77	1304.00
628.02	1301.00
628.28	1276.00
628.53	1264.00
628.79	1340.00
629.05	1372.00
629.30	1395.00
629.56	1421.00
629.81	1445.00
630.07	1428.00
630.32	1411.00
630.58	1427.00
630.83	1466.00
631.09	1527.00
631.34	1590.00
631.60	1607.00
631.85	1636.00
632.11	1725.00
632.36	1670.00
632.62	1678.00
632.87	1825.00
633.13	1789.00
633.38	1763.00
633.64	1773.00
633.89	1816.00
634.15	1755.00
634.40	1824.00
634.66	1926.00
634.91	2012.00
635.17	2082.00
635.42	2170.00
635.68	2146.00
635.93	2077.00
636.18	2051.00
636.44	2129.00
636.69	2173.00
636.95	2268.00
637.20	2287.00
637.46	2259.00
637.71	2295.00
637.97	2310.00
638.22	2286.00
638.48	2251.00
638.73	2228.00
638.99	2209.00
639.24	2278.00
639.50	2281.00
639.75	2189.00
640.01	2189.00
640.26	2317.00
640.52	2321.00
640.77	2171.00
641.03	2119.00
641.28	2016.00
641.54	2034.00
641.79	2029.00
642.04	2076.00
642.30	2140.00
642.55	2166.00
642.81	2115.00
643.06	2043.00
643.32	2006.00
643.57	1899.00
643.83	1767.00
644.08	1759.00
644.34	1789.00
644.59	1799.00
644.85	1774.00
645.10	1756.00
645.35	1691.00
645.61	1642.00
645.86	1611.00
646.12	1696.00
646.37	1725.00
646.63	1623.00
646.88	1479.00
647.14	1426.00
647.39	1366.00
647.65	1412.00
647.90	1371.00
648.15	1355.00
648.41	1349.00
648.66	1366.00
648.92	1316.00
649.17	1290.00
649.43	1262.00
649.68	1249.00
649.94	1212.00
650.19	1142.00
650.44	1179.00
650.70	1218.00
650.95	1148.00
651.21	1162.00
651.46	1145.00
651.72	1134.00
651.97	1106.00
652.23	1085.00
652.48	1089.00
652.73	1110.00
652.99	1106.00
653.24	1087.00
653.50	1040.00
653.75	999.00
654.01	990.00
654.26	1001.00
654.51	1014.00
654.77	1036.00
655.02	1004.00
655.28	987.00
655.53	989.00
655.79	1006.00
656.04	979.00
656.29	973.00
656.55	974.00
656.80	971.00
657.06	928.00
657.31	938.00
657.56	930.00
657.82	935.00
658.07	928.00
658.33	935.00
658.58	943.00
658.84	954.00
659.09	921.00
659.34	908.00
659.60	928.00
659.85	941.00
660.11	904.00
660.36	914.00
660.61	902.00
660.87	878.00
661.12	857.00
661.38	900.00
661.63	914.00
661.88	918.00
662.14	904.00
662.39	903.00
662.65	933.00
662.90	953.00
663.15	878.00
663.41	901.00
663.66	935.00
663.92	934.00
664.17	866.00
664.42	884.00
664.68	917.00
664.93	902.00
665.19	872.00
665.44	863.00
665.69	864.00
665.95	881.00
666.20	874.00
666.45	900.00
666.71	895.00
666.96	882.00
667.22	858.00
667.47	862.00
667.72	878.00
667.98	890.00
668.23	856.00
668.49	889.00
668.74	908.00
668.99	887.00
669.25	867.00
669.50	882.00
669.75	897.00
670.01	902.00
670.26	841.00
670.52	867.00
670.77	895.00
671.02	874.00
671.28	844.00
671.53	867.00
671.78	882.00
672.04	889.00
672.29	860.00
672.54	867.00
672.80	864.00
673.05	877.00
673.31	846.00
673.56	888.00
673.81	909.00
674.07	902.00
674.32	876.00
674.57	859.00
674.83	863.00
675.08	884.00
675.33	878.00
675.59	875.00
675.84	894.00
676.09	866.00
676.35	880.00
676.60	883.00
676.86	879.00
677.11	910.00
677.36	862.00
677.62	879.00
677.87	932.00
678.12	936.00
678.38	849.00
678.63	869.00
678.88	906.00
679.14	902.00
679.39	831.00
679.64	870.00
679.90	867.00
680.15	898.00
680.40	876.00
680.66	866.00
680.91	889.00
681.16	876.00
681.42	849.00
681.67	854.00
681.92	870.00
682.18	904.00
682.43	863.00
682.68	856.00
682.94	870.00
683.19	856.00
683.44	833.00
683.70	867.00
683.95	899.00
684.20	896.00
684.46	876.00
684.71	892.00
684.96	865.00
685.22	883.00
685.47	854.00
685.72	878.00
685.98	896.00
686.23	850.00
686.48	825.00
686.74	876.00
686.99	900.00
687.24	900.00
687.50	863.00
687.75	857.00
688.00	864.00
688.25	872.00
688.51	864.00
688.76	880.00
689.01	855.00
689.27	873.00
689.52	837.00
689.77	861.00
690.03	857.00
690.28	851.00
690.53	853.00
690.79	876.00
691.04	890.00
691.29	895.00
691.54	835.00
691.80	868.00
692.05	876.00
692.30	867.00
692.56	850.00
692.81	865.00
693.06	864.00
693.32	850.00
693.57	837.00
693.82	877.00
694.07	877.00
694.33	882.00
694.58	843.00
694.83	886.00
695.09	867.00
695.34	894.00
695.59	870.00
695.84	873.00
696.10	897.00
696.35	904.00
696.60	842.00
696.86	853.00
697.11	868.00
697.36	895.00
697.61	846.00
697.87	872.00
698.12	871.00
698.37	875.00
698.63	873.00
698.88	858.00
699.13	875.00
699.38	867.00
699.64	824.00
699.89	857.00
700.14	849.00
700.39	873.00
700.65	848.00
700.90	880.00
701.15	873.00
701.40	891.00
701.66	858.00
701.91	854.00
702.16	866.00
702.42	855.00
702.67	825.00
702.92	846.00
703.17	866.00
703.43	877.00
703.68	855.00
703.93	889.00
704.18	903.00
704.44	874.00
704.69	868.00
704.94	866.00
705.19	876.00
705.45	877.00
705.70	853.00
705.95	853.00
706.20	862.00
706.46	891.00
706.71	868.00
706.96	861.00
707.21	881.00
707.47	884.00
707.72	858.00
707.97	862.00
708.22	881.00
708.48	906.00
708.73	854.00
708.98	847.00
709.23	874.00
709.49	894.00
709.74	862.00
709.99	854.00
710.24	866.00
710.50	867.00
710.75	860.00
711.00	891.00
711.25	886.00
711.50	875.00
711.76	844.00
712.01	855.00
712.26	856.00
712.51	884.00
712.77	852.00
713.02	856.00
713.27	863.00
713.52	871.00
713.78	862.00
714.03	866.00
714.28	850.00
714.53	877.00
714.78	855.00
715.04	877.00
715.29	877.00
715.54	882.00
715.79	828.00
716.05	861.00
716.30	880.00
716.55	880.00
716.80	868.00
717.05	889.00
717.31	894.00
717.56	896.00
717.81	875.00
718.06	852.00
718.31	848.00
718.57	887.00
718.82	842.00
719.07	874.00
719.32	855.00
719.57	899.00
719.83	846.00
720.08	859.00
720.33	857.00
720.58	866.00
720.83	826.00
721.09	898.00
721.34	871.00
721.59	892.00
721.84	845.00
722.09	873.00
722.35	869.00
722.60	861.00
722.85	837.00
723.10	881.00
723.35	866.00
723.61	879.00
723.86	874.00
724.11	853.00
724.36	860.00
724.61	876.00
724.87	861.00
725.12	879.00
725.37	866.00
725.62	845.00
725.87	845.00
726.12	859.00
726.38	856.00
726.63	886.00
726.88	863.00
727.13	873.00
727.38	867.00
727.64	875.00
727.89	846.00
728.14	844.00
728.39	842.00
728.64	865.00
728.89	840.00
729.15	870.00
729.40	888.00
729.65	907.00
729.90	857.00
730.15	884.00
730.40	910.00
730.66	890.00
730.91	843.00
731.16	875.00
731.41	884.00
731.66	877.00
731.91	846.00
732.17	880.00
732.42	874.00
732.67	866.00
732.92	849.00
733.17	891.00
733.42	885.00
733.68	886.00
733.93	862.00
734.18	867.00
734.43	865.00
734.68	865.00
734.93	850.00
735.18	849.00
735.44	877.00
735.69	887.00
735.94	836.00
736.19	855.00
736.44	868.00
736.69	916.00
736.95	859.00
737.20	874.00
737.45	877.00
737.70	884.00
737.95	869.00
738.20	889.00
738.45	903.00
738.70	885.00
738.96	871.00
739.21	898.00
739.46	896.00
739.71	894.00
739.96	861.00
740.21	891.00
740.46	932.00
740.72	903.00
740.97	849.00
741.22	872.00
741.47	843.00
741.72	860.00
741.97	828.00
742.22	862.00
742.47	871.00
742.73	869.00
742.98	830.00
743.23	822.00
743.48	848.00
743.73	880.00
743.98	854.00
744.23	847.00
744.48	878.00
744.74	860.00
744.99	842.00
745.24	890.00
745.49	855.00
745.74	881.00
745.99	839.00
746.24	863.00
746.49	852.00
746.74	852.00
747.00	851.00
747.25	850.00
747.50	832.00
747.75	868.00
748.00	819.00
748.25	861.00
748.50	864.00
748.75	896.00
749.00	878.00
749.26	903.00
749.51	884.00
749.76	877.00
750.01	826.00
750.26	878.00
750.51	908.00
750.76	878.00
751.01	843.00
751.26	865.00
751.51	877.00
751.77	893.00
752.02	868.00
752.27	867.00
752.52	870.00
752.77	889.00
753.02	857.00
753.27	856.00
753.52	862.00
753.77	861.00
754.02	859.00
754.27	868.00
754.52	858.00
754.78	874.00
755.03	851.00
755.28	869.00
755.53	870.00
755.78	866.00
756.03	837.00
756.28	874.00
756.53	876.00
756.78	889.00
757.03	855.00
757.28	877.00
757.53	879.00
757.79	844.00
758.04	838.00
758.29	900.00
758.54	887.00
758.79	876.00
759.04	836.00
759.29	845.00
759.54	844.00
759.79	860.00
760.04	857.00
760.29	868.00
760.54	861.00
760.79	867.00
761.04	839.00
761.29	855.00
761.55	848.00
761.80	858.00
762.05	836.00
762.30	860.00
762.55	861.00
762.80	876.00
763.05	879.00
763.30	896.00
763.55	898.00
763.80	899.00
764.05	834.00
764.30	869.00
764.55	903.00
764.80	882.00
765.05	837.00
765.30	871.00
765.55	866.00
765.80	859.00
766.05	803.00
766.30	841.00
766.56	848.00
766.81	880.00
767.06	859.00
767.31	856.00
767.56	856.00
767.81	882.00
768.06	863.00
768.31	873.00
768.56	873.00
768.81	916.00
769.06	860.00
769.31	858.00
769.56	865.00
769.81	892.00
770.06	829.00
770.31	833.00
770.56	855.00
770.81	851.00
771.06	848.00
771.31	872.00
771.56	861.00
771.81	883.00
772.06	845.00
772.31	882.00
772.56	870.00
772.81	884.00
773.06	863.00
773.31	884.00
773.56	881.00
773.81	856.00
774.06	842.00
774.31	853.00
774.56	855.00
774.81	886.00
775.06	865.00
775.31	879.00
775.56	871.00
775.81	854.00
776.06	836.00
776.31	858.00
776.56	860.00
776.82	871.00
777.07	829.00
777.32	864.00
777.57	878.00
777.82	902.00
778.07	860.00
778.32	868.00
778.57	884.00
778.82	895.00
779.07	858.00
779.32	861.00
779.57	848.00
779.82	875.00
780.07	848.00
780.32	862.00
780.56	854.00
780.81	891.00
781.06	834.00
781.31	853.00
781.56	889.00
781.81	879.00
782.06	844.00
782.31	871.00
782.56	892.00
782.81	923.00
783.06	860.00
783.31	870.00
783.56	857.00
783.81	894.00
784.06	865.00
784.31	867.00
784.56	857.00
784.81	904.00
785.06	870.00
785.31	868.00
785.56	846.00
785.81	854.00
786.06	841.00
786.31	848.00
786.56	856.00
786.81	862.00
787.06	855.00
787.31	848.00
787.56	859.00
787.81	865.00
788.06	840.00
788.31	867.00
788.56	850.00
788.81	869.00
789.06	852.00
789.31	859.00
789.56	864.00
789.81	878.00
790.06	833.00
790.31	889.00
790.56	868.00
790.80	869.00
791.05	838.00
791.30	833.00
791.55	843.00
791.80	872.00
792.05	856.00
792.30	841.00
792.55	853.00
792.80	865.00
793.05	855.00
793.30	847.00
793.55	865.00
793.80	875.00
794.05	827.00
794.30	844.00
794.55	861.00
794.80	884.00
795.05	858.00
795.30	860.00
795.54	862.00
795.79	885.00
796.04	848.00
796.29	858.00
796.54	860.00
796.79	888.00
797.04	846.00
797.29	869.00
797.54	890.00
797.79	885.00
798.04	859.00
798.29	849.00
798.54	837.00
798.79	857.00
799.04	836.00
799.29	855.00
799.53	863.00
799.78	877.00
800.03	850.00
800.28	844.00
800.53	853.00
800.78	905.00
801.03	850.00
801.28	873.00
801.53	863.00
801.78	883.00
802.03	850.00
802.28	868.00
802.52	880.00
802.77	883.00
803.02	862.00
803.27	884.00
803.52	844.00
803.77	894.00
804.02	875.00
804.27	877.00
804.52	874.00
804.77	905.00
805.02	876.00
805.27	884.00
805.51	870.00
805.76	881.00
806.01	844.00
806.26	854.00
806.51	857.00
806.76	894.00
807.01	870.00
807.26	856.00
807.51	888.00
807.76	865.00
808.00	841.00
808.25	854.00
808.50	878.00
808.75	861.00
809.00	856.00
809.25	879.00
809.50	871.00
809.75	881.00
810.00	854.00
810.24	835.00
810.49	811.00
810.74	842.00
810.99	842.00
811.24	859.00
811.49	860.00
811.74	880.00
811.99	830.00
812.24	876.00
812.48	857.00
812.73	837.00
812.98	809.00
813.23	845.00
813.48	854.00
813.73	861.00
813.98	821.00
814.23	848.00
814.47	853.00
814.72	860.00
814.97	837.00
815.22	875.00
815.47	855.00
815.72	856.00
815.97	829.00
816.22	850.00
816.46	864.00
816.71	883.00
816.96	859.00
817.21	871.00
817.46	851.00
817.71	874.00
817.96	840.00
818.20	846.00
818.45	840.00
818.70	858.00
818.95	839.00
819.20	842.00
819.45	848.00
819.70	856.00
819.94	832.00
820.19	853.00
820.44	853.00
820.69	869.00
820.94	850.00
821.19	881.00
821.44	927.00
821.68	931.00
821.93	858.00
822.18	873.00
822.43	882.00
822.68	880.00
822.93	845.00
823.17	862.00
823.42	869.00
823.67	849.00
823.92	827.00
824.17	867.00
824.42	846.00
824.67	882.00
824.91	856.00
825.16	855.00
825.41	864.00
825.66	878.00
825.91	830.00
826.16	860.00
826.40	852.00
826.65	864.00
826.90	853.00
827.15	869.00
827.40	871.00
827.65	903.00
827.89	803.00
828.14	838.00
828.39	883.00
828.64	871.00
828.89	839.00
829.13	859.00
829.38	841.00
829.63	868.00
829.88	846.00
830.13	832.00
830.38	848.00
830.62	850.00
830.87	837.00
831.12	866.00
831.37	873.00
831.62	901.00
831.86	871.00
832.11	863.00
832.36	838.00
832.61	874.00
832.86	854.00
833.10	866.00
833.35	876.00
833.60	874.00
833.85	849.00
834.10	885.00
834.35	899.00
834.59	893.00
834.84	852.00
835.09	860.00
835.34	855.00
835.59	852.00
835.83	864.00
836.08	883.00
836.33	883.00
836.58	890.00
836.83	853.00
837.07	870.00
837.32	881.00
837.57	862.00
837.82	830.00
838.06	864.00
838.31	886.00
838.56	901.00
838.81	843.00
839.06	879.00
839.30	873.00
839.55	884.00
839.80	841.00
840.05	869.00
840.30	888.00
840.54	912.00
840.79	845.00
841.04	855.00
841.29	867.00
841.53	884.00
841.78	835.00
842.03	836.00
842.28	848.00
842.53	845.00
842.77	850.00
843.02	863.00
843.27	866.00
843.52	866.00
843.76	838.00
844.01	871.00
844.26	856.00
844.51	869.00
844.75	848.00
845.00	845.00
845.25	865.00
845.50	890.00
845.75	864.00
845.99	876.00
846.24	885.00
846.49	883.00
846.74	833.00
846.98	824.00
847.23	856.00
847.48	870.00
847.73	831.00
847.97	857.00
848.22	889.00
848.47	882.00
848.72	861.00
848.96	851.00
849.21	867.00
849.46	846.00
849.71	829.00
849.95	843.00
850.20	842.00
850.45	882.00
850.70	828.00
850.94	862.00
851.19	856.00
851.44	866.00
851.69	834.00
851.93	851.00
852.18	884.00
852.43	895.00
852.68	864.00
852.92	873.00
853.17	892.00
853.42	885.00
853.66	862.00
853.91	887.00
854.16	860.00
854.41	899.00
854.65	855.00
854.90	849.00
855.15	869.00
855.40	882.00
855.64	862.00
855.89	861.00
856.14	852.00
856.39	849.00
856.63	833.00
856.88	841.00
857.13	854.00
857.37	858.00
857.62	838.00
857.87	839.00
858.12	856.00
858.36	868.00
858.61	808.00
858.86	849.00
859.10	881.00
859.35	881.00
859.60	850.00
859.85	833.00
860.09	838.00
860.34	871.00
860.59	850.00
860.83	867.00
861.08	856.00
861.33	874.00
861.58	837.00
861.82	852.00
862.07	872.00
862.32	866.00
862.56	825.00
862.81	852.00
863.06	858.00
863.30	862.00
863.55	843.00
863.80	857.00
864.05	858.00
864.29	858.00
864.54	852.00
864.79	872.00
865.03	863.00
865.28	890.00
865.53	851.00
865.77	836.00
866.02	878.00
866.27	885.00
866.51	859.00
866.76	850.00
867.01	846.00
867.26	881.00
867.50	852.00
867.75	838.00
868.00	864.00
868.24	880.00
868.49	849.00
868.74	860.00
868.98	854.00
869.23	883.00
869.48	868.00
869.72	863.00
869.97	852.00
870.22	881.00
870.46	847.00
870.71	864.00
870.96	865.00
871.20	884.00
871.45	841.00
871.70	861.00
871.94	901.00
872.19	887.00
872.44	855.00
872.68	862.00
872.93	860.00
873.18	881.00
873.42	840.00
873.67	862.00
873.92	879.00
874.16	858.00
874.41	829.00
874.66	862.00
874.90	861.00
875.15	890.00
875.40	864.00
875.64	871.00
875.89	860.00
876.14	867.00
876.38	841.00
876.63	858.00
876.88	867.00
877.12	868.00
877.37	836.00
877.62	866.00
877.86	849.00
878.11	887.00
878.36	825.00
878.60	848.00
878.85	848.00
879.09	882.00
879.34	854.00
879.59	872.00
879.83	891.00
880.08	911.00
880.33	877.00
880.57	877.00
880.82	868.00
881.07	875.00
881.31	839.00
881.56	840.00
881.80	834.00
882.05	857.00
882.30	823.00
882.54	838.00
882.79	889.00
883.04	922.00
883.28	883.00
883.53	860.00
883.77	880.00
884.02	891.00
884.27	842.00
884.51	852.00
884.76	848.00
885.01	888.00
885.25	823.00
885.50	878.00
885.74	867.00
885.99	901.00
886.24	851.00
886.48	869.00
886.73	879.00
886.98	890.00
887.22	872.00
887.47	878.00
887.71	888.00
887.96	877.00
888.21	862.00
888.45	846.00
888.70	846.00
888.94	894.00
889.19	837.00
889.44	836.00
889.68	866.00
889.93	903.00
890.17	849.00
890.42	853.00
890.67	892.00
890.91	949.00
891.16	876.00
891.40	861.00
891.65	869.00
891.90	887.00
892.14	834.00
892.39	872.00
892.63	881.00
892.88	902.00
893.13	857.00
893.37	858.00
893.62	864.00
893.86	887.00
894.11	856.00
894.36	867.00
894.60	846.00
894.85	845.00
895.09	844.00
895.34	891.00
895.59	869.00
895.83	871.00
896.08	839.00
896.32	834.00
896.57	858.00
896.81	855.00
897.06	840.00
897.31	868.00
897.55	880.00
897.80	840.00
898.04	824.00
898.29	854.00
898.53	868.00
898.78	880.00
899.03	854.00
899.27	848.00
899.52	870.00
899.76	884.00
900.01	833.00
900.25	862.00
900.50	859.00
900.75	877.00
900.99	841.00
901.24	913.00
901.48	880.00
901.73	879.00
901.97	835.00
902.22	842.00
902.47	875.00
902.71	865.00
902.96	823.00
903.20	856.00
903.45	873.00
903.69	868.00
903.94	856.00
904.18	846.00
904.43	863.00
904.68	869.00
904.92	833.00
905.17	855.00
905.41	866.00
905.66	880.00
905.90	883.00
906.15	861.00
906.39	873.00
906.64	874.00
906.88	834.00
907.13	865.00
907.38	888.00
907.62	887.00
907.87	852.00
908.11	879.00
908.36	846.00
908.60	868.00
908.85	823.00
909.09	850.00
909.34	862.00
909.58	868.00
909.83	857.00
910.07	857.00
910.32	911.00
910.56	921.00
910.81	849.00
911.06	893.00
911.30	892.00
911.55	857.00
911.79	837.00
912.04	835.00
912.28	845.00
912.53	867.00
912.77	855.00
913.02	844.00
913.26	869.00
913.51	872.00
913.75	850.00
914.00	870.00
914.24	867.00
914.49	872.00
914.73	836.00
914.98	861.00
915.22	892.00
915.47	875.00
915.71	846.00
915.96	855.00
916.20	870.00
916.45	845.00
916.69	832.00
916.94	868.00
917.18	854.00
917.43	863.00
917.67	825.00
917.92	826.00
918.16	880.00
918.41	882.00
918.65	841.00
918.90	838.00
919.14	844.00
919.39	877.00
919.63	852.00
919.88	846.00
920.12	870.00
920.37	864.00
920.61	843.00
920.86	872.00
921.10	880.00
921.35	860.00
921.59	840.00
921.84	859.00
922.08	877.00
922.33	896.00
922.57	836.00
922.82	842.00
923.06	869.00
923.31	887.00
923.55	818.00
923.80	838.00
924.04	848.00
924.29	869.00
924.53	830.00
924.78	848.00
925.02	863.00
925.27	874.00
925.51	861.00
925.76	878.00
926.00	869.00
926.25	874.00
926.49	840.00
926.73	859.00
926.98	866.00
927.22	886.00
927.47	867.00
927.71	862.00
927.96	878.00
928.20	864.00
928.45	880.00
928.69	899.00
928.94	902.00
929.18	874.00
929.43	865.00
929.67	858.00
929.91	877.00
930.16	888.00
930.40	833.00
930.65	822.00
930.89	850.00
931.14	897.00
931.38	860.00
931.63	871.00
931.87	875.00
932.12	881.00
932.36	835.00
932.60	852.00
932.85	873.00
933.09	868.00
933.34	824.00
933.58	875.00
933.83	853.00
934.07	871.00
934.32	853.00
934.56	880.00
934.80	902.00
935.05	907.00
935.29	867.00
935.54	872.00
935.78	857.00
936.03	862.00
936.27	819.00
936.52	840.00
936.76	848.00
937.00	858.00
937.25	848.00
937.49	874.00
937.74	889.00
937.98	897.00
938.23	833.00
938.47	840.00
938.71	863.00
938.96	870.00
939.20	843.00
939.45	845.00
939.69	867.00
939.94	887.00
940.18	826.00
940.42	844.00
940.67	871.00
940.91	858.00
941.16	844.00
941.40	844.00
941.64	853.00
941.89	878.00
942.13	802.00
942.38	851.00
942.62	928.00
942.87	902.00
943.11	878.00
943.35	855.00
943.60	867.00
943.84	894.00
944.09	860.00
944.33	892.00
944.57	891.00
944.82	850.00
945.06	826.00
945.31	858.00
945.55	872.00
945.79	880.00
946.04	845.00
946.28	848.00
946.53	862.00
946.77	881.00
947.01	836.00
947.26	872.00
947.50	863.00
947.75	863.00
947.99	849.00
948.23	862.00
948.48	866.00
948.72	879.00
948.97	844.00
949.21	863.00
949.45	859.00
949.70	892.00
949.94	859.00
950.18	867.00
950.43	887.00
950.67	878.00
950.92	847.00
951.16	849.00
951.40	866.00
951.65	869.00
951.89	842.00
952.13	856.00
952.38	880.00
952.62	892.00
952.87	857.00
953.11	871.00
953.35	886.00
953.60	899.00
953.84	825.00
954.08	839.00
954.33	869.00
954.57	872.00
954.82	829.00
955.06	840.00
955.30	845.00
955.55	870.00
955.79	853.00
956.03	843.00
956.28	854.00
956.52	853.00
956.76	842.00
957.01	873.00
957.25	854.00
957.50	879.00
957.74	850.00
957.98	845.00
958.23	862.00
958.47	871.00
958.71	854.00
958.96	901.00
959.20	905.00
959.44	863.00
959.69	854.00
959.93	877.00
960.17	875.00
960.42	873.00
960.66	858.00
960.90	867.00
961.15	874.00
961.39	872.00
961.64	823.00
961.88	840.00
962.12	883.00
962.37	883.00
962.61	843.00
962.85	830.00
963.10	871.00
963.34	878.00
963.58	831.00
963.83	857.00
964.07	877.00
964.31	874.00
964.56	867.00
964.80	861.00
965.04	868.00
965.29	873.00
965.53	843.00
965.77	853.00
966.02	826.00
966.26	844.00
966.50	832.00
966.74	873.00
966.99	901.00
967.23	900.00
967.47	860.00
967.72	868.00
967.96	877.00
968.20	882.00
968.45	846.00
968.69	852.00
968.93	850.00
969.18	862.00
969.42	868.00
969.66	864.00
969.91	850.00
970.15	886.00
970.39	853.00
970.64	870.00
970.88	881.00
971.12	875.00
971.36	849.00
971.61	845.00
971.85	850.00
972.09	856.00
972.34	833.00
972.58	872.00
972.82	877.00
973.07	898.00
973.31	839.00
973.55	851.00
973.79	874.00
974.04	898.00
974.28	847.00
974.52	852.00
974.77	857.00
975.01	886.00
975.25	850.00
975.50	852.00
975.74	874.00
975.98	877.00
976.22	858.00
976.47	861.00
976.71	865.00
976.95	876.00
977.20	864.00
977.44	871.00
977.68	867.00
977.92	873.00
978.17	830.00
978.41	851.00
978.65	893.00
978.90	875.00
979.14	868.00
979.38	860.00
979.62	843.00
979.87	857.00
980.11	817.00
980.35	840.00
980.59	875.00
980.84	885.00
981.08	852.00
981.32	850.00
981.57	873.00
981.81	869.00
982.05	855.00
982.29	849.00
982.54	853.00
982.78	875.00
983.02	855.00
983.26	861.00
983.51	886.00
983.75	894.00
983.99	846.00
984.23	873.00
984.48	870.00
984.72	880.00
984.96	836.00
985.20	868.00
985.45	912.00
985.69	875.00
985.93	843.00
986.17	857.00
986.42	869.00
986.66	884.00
986.90	829.00
987.14	828.00
987.39	868.00
987.63	854.00
987.87	823.00
988.11	835.00
988.36	860.00
988.60	870.00
988.84	869.00
989.08	845.00
989.33	885.00
989.57	880.00
989.81	824.00
990.05	836.00
990.30	850.00
990.54	837.00
990.78	830.00
991.02	843.00
991.27	867.00
991.51	878.00
991.75	848.00
991.99	883.00
992.23	849.00
992.48	828.00
992.72	827.00
992.96	858.00
993.20	832.00
993.45	871.00
993.69	881.00
993.93	849.00
994.17	864.00
994.41	876.00
994.66	826.00
994.90	847.00
995.14	882.00
995.38	869.00
995.63	850.00
995.87	856.00
996.11	898.00
996.35	862.00
996.59	823.00
996.84	838.00
997.08	879.00
997.32	868.00
997.56	855.00
997.80	838.00
998.05	838.00
998.29	845.00
998.53	842.00
998.77	863.00
999.01	891.00
999.26	882.00
999.50	852.00
999.74	825.00
999.98	859.00
1000.22	874.00
1000.47	831.00
1000.71	835.00
1000.95	888.00
1001.19	880.00
1001.43	852.00
1001.68	861.00
1001.92	859.00
1002.16	842.00
1002.40	813.00
1002.64	840.00
1002.89	862.00
1003.13	882.00
1003.37	869.00
1003.61	832.00
1003.85	867.00
1004.10	851.00
1004.34	832.00
1004.58	840.00
1004.82	871.00
1005.06	871.00
1005.30	842.00
1005.55	840.00
1005.79	857.00
1006.03	873.00
1006.27	855.00
1006.51	854.00
1006.76	870.00
1007.00	900.00
1007.24	859.00
1007.48	865.00
1007.72	893.00
1007.96	876.00
1008.21	864.00
1008.45	869.00
1008.69	873.00
1008.93	888.00
1009.17	864.00
1009.41	869.00
1009.66	887.00
1009.90	862.00
1010.14	830.00
1010.38	855.00
1010.62	866.00
1010.86	889.00
1011.10	850.00
1011.35	858.00
1011.59	856.00
1011.83	850.00
1012.07	846.00
1012.31	870.00
1012.55	877.00
1012.80	886.00
1013.04	853.00
1013.28	862.00
1013.52	854.00
1013.76	885.00
1014.00	834.00
1014.24	856.00
1014.49	881.00
1014.73	907.00
1014.97	878.00
1015.21	868.00
1015.45	886.00
1015.69	862.00
1015.93	850.00
1016.18	860.00
1016.42	892.00
1016.66	892.00
1016.90	834.00
1017.14	819.00
1017.38	833.00
1017.62	863.00
1017.87	845.00
1018.11	850.00
1018.35	867.00
1018.59	877.00
1018.83	832.00
1019.07	847.00
1019.31	880.00
1019.55	877.00
1019.80	842.00
1020.04	845.00
1020.28	869.00
1020.52	863.00
1020.76	832.00
1021.00	818.00
1021.24	844.00
1021.48	856.00
1021.73	852.00
1021.97	867.00
1022.21	849.00
1022.45	879.00
1022.69	860.00
1022.93	851.00
1023.17	878.00
1023.41	917.00
1023.65	850.00
1023.90	865.00
1024.14	868.00
1024.38	861.00
1024.62	830.00
1024.86	858.00
1025.10	881.00
1025.34	877.00
1025.58	841.00
1025.82	846.00
1026.07	897.00
1026.31	882.00
1026.55	840.00
1026.79	847.00
1027.03	860.00
1027.27	859.00
1027.51	819.00
1027.75	824.00
1027.99	845.00
1028.23	892.00
1028.47	868.00
1028.72	847.00
1028.96	885.00
1029.20	880.00
1029.44	867.00
1029.68	865.00
1029.92	875.00
1030.16	889.00
1030.40	827.00
1030.64	856.00
1030.88	863.00
1031.12	840.00
1031.37	811.00
1031.61	850.00
1031.85	874.00
1032.09	892.00
1032.33	841.00
1032.57	893.00
1032.81	873.00
1033.05	887.00
1033.29	862.00
1033.53	856.00
1033.77	916.00
1034.01	906.00
1034.25	875.00
1034.50	868.00
1034.74	876.00
1034.98	880.00
1035.22	851.00
1035.46	858.00
1035.70	890.00
1035.94	894.00
1036.18	866.00
1036.42	868.00
1036.66	855.00
1036.90	859.00
1037.14	831.00
1037.38	842.00
1037.62	866.00
1037.86	869.00
1038.10	826.00
1038.35	839.00
1038.59	867.00
1038.83	891.00
1039.07	871.00
1039.31	865.00
1039.55	852.00
1039.79	877.00
1040.03	839.00
1040.27	846.00
1040.51	881.00
1040.75	916.00
1040.99	863.00
1041.23	865.00
1041.47	873.00
1041.71	896.00
1041.95	860.00
1042.19	848.00
1042.43	898.00
1042.67	909.00
1042.91	852.00
1043.15	841.00
1043.39	900.00
1043.64	869.00
1043.88	842.00
1044.12	849.00
1044.36	909.00
1044.60	902.00
1044.84	858.00
1045.08	853.00
1045.32	867.00
1045.56	872.00
1045.80	840.00
1046.04	860.00
1046.28	898.00
1046.52	889.00
1046.76	826.00
1047.00	837.00
1047.24	860.00
1047.48	856.00
1047.72	843.00
1047.96	858.00
1048.20	875.00
1048.44	863.00
1048.68	830.00
1048.92	860.00
1049.16	878.00
1049.40	899.00
1049.64	850.00
1049.88	860.00
1050.12	896.00
1050.36	890.00
1050.60	847.00
1050.84	854.00
1051.08	862.00
1051.32	854.00
1051.56	848.00
1051.80	841.00
1052.04	867.00
1052.28	884.00
1052.52	834.00
1052.76	831.00
1053.00	876.00
1053.24	876.00
1053.48	840.00
1053.72	857.00
1053.96	868.00
1054.20	880.00
1054.44	862.00
1054.68	873.00
1054.92	885.00
1055.16	841.00
1055.40	839.00
1055.64	871.00
1055.88	878.00
1056.12	904.00
1056.36	822.00
1056.60	837.00
1056.84	878.00
1057.08	858.00
1057.32	856.00
1057.56	862.00
1057.80	878.00
1058.04	885.00
1058.28	844.00
1058.52	857.00
1058.76	881.00
1059.00	890.00
1059.24	828.00
1059.48	828.00
1059.72	880.00
1059.96	876.00
1060.20	870.00
1060.44	888.00
1060.68	898.00
1060.92	880.00
1061.16	832.00
1061.40	856.00
1061.64	868.00
1061.88	881.00
1062.11	856.00
1062.35	838.00
1062.59	846.00
1062.83	878.00
1063.07	837.00
1063.31	832.00
1063.55	856.00
1063.79	874.00
1064.03	855.00
1064.27	841.00
1064.51	857.00
1064.75	868.00
1064.99	858.00
1065.23	861.00
1065.47	870.00
1065.71	874.00
1065.95	846.00
1066.19	849.00
1066.43	870.00
1066.67	887.00
1066.91	862.00
1067.15	869.00
1067.38	868.00
1067.62	873.00
1067.86	835.00
1068.10	856.00
1068.34	897.00
1068.58	901.00
1068.82	860.00
1069.06	820.00
1069.30	854.00
1069.54	884.00
1069.78	860.00
1070.02	852.00
1070.26	891.00
1070.50	904.00
1070.74	861.00
1070.98	881.00
1071.21	882.00
1071.45	878.00
1071.69	858.00
1071.93	870.00
1072.17	873.00
1072.41	888.00
1072.65	856.00
1072.89	863.00
1073.13	871.00
1073.37	854.00
1073.61	844.00
1073.85	875.00
1074.09	866.00
1074.32	854.00
1074.56	835.00
1074.80	910.00
1075.04	1109.00
1075.28	969.00
1075.52	861.00
1075.76	845.00
1076.00	892.00
1076.24	882.00
1076.48	871.00
1076.72	872.00
1076.96	906.00
1077.19	887.00
1077.43	834.00
1077.67	870.00
1077.91	875.00
1078.15	856.00
1078.39	866.00
1078.63	865.00
1078.87	862.00
1079.11	876.00
1079.35	843.00
1079.58	853.00
1079.82	869.00
1080.06	860.00
1080.30	831.00
1080.54	872.00
1080.78	897.00
1081.02	855.00
1081.26	853.00
1081.50	875.00
1081.74	878.00
1081.97	884.00
1082.21	844.00
1082.45	879.00
1082.69	852.00
1082.93	855.00
1083.17	846.00
1083.41	844.00
1083.65	886.00
1083.88	905.00
1084.12	869.00
1084.36	861.00
1084.60	878.00
1084.84	888.00
1085.08	830.00
1085.32	852.00
1085.56	904.00
1085.80	877.00
1086.03	860.00
1086.27	839.00
1086.51	859.00
1086.75	872.00
1086.99	853.00
1087.23	823.00
1087.47	858.00
1087.70	859.00
1087.94	867.00
1088.18	882.00
1088.42	901.00
1088.66	879.00
1088.90	829.00
1089.14	862.00
1089.38	849.00
1089.61	878.00
1089.85	858.00
1090.09	818.00
1090.33	870.00
1090.57	877.00
1090.81	820.00
1091.05	855.00
1091.28	877.00
1091.52	890.00
1091.76	840.00
1092.00	854.00
1092.24	877.00
1092.48	901.00
1092.71	841.00
1092.95	871.00
1093.19	870.00
1093.43	849.00
1093.67	836.00
1093.91	877.00
1094.15	885.00
1094.38	884.00
1094.62	843.00
1094.86	857.00
1095.10	861.00
1095.34	860.00
1095.58	852.00
1095.81	861.00
1096.05	904.00
1096.29	904.00
1096.53	842.00
1096.77	861.00
1097.01	856.00
1097.24	907.00
1097.48	844.00
1097.72	852.00
1097.96	870.00
1098.20	884.00
1098.44	831.00
1098.67	812.00
1098.91	870.00
1099.15	869.00
1099.39	832.00
1099.63	853.00
1099.86	876.00
1100.10	863.00
1100.34	866.00
1100.58	849.00
1100.82	885.00
1101.06	870.00
1101.29	822.00
1101.53	847.00
1101.77	875.00
1102.01	862.00
1102.25	852.00
1102.48	863.00
1102.72	880.00
1102.96	878.00
1103.20	818.00
1103.44	846.00
1103.67	854.00
1103.91	880.00
1104.15	831.00
1104.39	843.00
1104.63	872.00
1104.86	849.00
1105.10	841.00
1105.34	866.00
1105.58	829.00
1105.82	851.00
1106.05	842.00
1106.29	864.00
1106.53	861.00
1106.77	893.00
1107.01	838.00
1107.24	878.00
1107.48	915.00
1107.72	880.00
1107.96	815.00
1108.20	842.00
1108.43	872.00
1108.67	868.00
1108.91	851.00
1109.15	848.00
1109.39	858.00
1109.62	877.00
1109.86	842.00
1110.10	849.00
1110.34	910.00
1110.57	923.00
1110.81	845.00
1111.05	861.00
1111.29	889.00
1111.53	890.00
1111.76	858.00
1112.00	881.00
1112.24	893.00
1112.48	873.00
1112.71	824.00
1112.95	853.00
1113.19	880.00
1113.43	871.00
1113.66	818.00
1113.90	850.00
1114.14	875.00
1114.38	878.00
1114.62	828.00
1114.85	868.00
1115.09	880.00
1115.33	904.00
1115.57	853.00
1115.80	835.00
1116.04	860.00
1116.28	858.00
1116.52	835.00
1116.75	839.00
1116.99	885.00
1117.23	905.00
1117.47	872.00
1117.70	890.00
1117.94	928.00
1118.18	864.00
1118.42	846.00
1118.65	873.00
1118.89	896.00
1119.13	875.00
1119.37	844.00
1119.60	859.00
1119.84	881.00
>>>>>End Processed Spectral Data<<<<<
