SpectraSuite Data File
++++++++++++++++++++++++++++++++++++
Date: Fri Dec 06 14:54:52 CET 2024
User: student
Dark Spectrum Present: No
Reference Spectrum Present: No
Number of Sampled Component Spectra: 1
Spectrometers: HR4C155
Integration Time (usec): 100000 (HR4C155)
Spectra Averaged: 1 (HR4C155)
Boxcar Smoothing: 0 (HR4C155)
Correct for Electrical Dark: No (HR4C155)
Strobe/Lamp Enabled: No (HR4C155)
Correct for Detector Non-linearity: No (HR4C155)
Correct for Stray Light: No (HR4C155)
Number of Pixels in Processed Spectrum: 3648
>>>>>Begin Processed Spectral Data<<<<<
195.39	707.00
195.66	707.00
195.93	707.00
196.20	681.00
196.46	724.00
196.73	821.00
197.00	831.00
197.27	828.00
197.54	859.00
197.81	846.00
198.08	850.00
198.35	862.00
198.61	884.00
198.88	858.00
199.15	849.00
199.42	856.00
199.69	873.00
199.96	851.00
200.23	872.00
200.49	880.00
200.76	866.00
201.03	883.00
201.30	868.00
201.57	930.00
201.84	919.00
202.11	862.00
202.38	898.00
202.64	911.00
202.91	914.00
203.18	849.00
203.45	923.00
203.72	1001.00
203.99	921.00
204.25	917.00
204.52	889.00
204.79	904.00
205.06	933.00
205.33	883.00
205.60	892.00
205.87	916.00
206.13	931.00
206.40	881.00
206.67	876.00
206.94	912.00
207.21	923.00
207.48	897.00
207.75	884.00
208.01	920.00
208.28	912.00
208.55	869.00
208.82	897.00
209.09	885.00
209.36	917.00
209.62	908.00
209.89	907.00
210.16	932.00
210.43	942.00
210.70	877.00
210.97	881.00
211.23	926.00
211.50	951.00
211.77	890.00
212.04	904.00
212.31	909.00
212.58	917.00
212.84	887.00
213.11	904.00
213.38	884.00
213.65	920.00
213.92	879.00
214.18	886.00
214.45	911.00
214.72	916.00
214.99	883.00
215.26	902.00
215.53	893.00
215.79	921.00
216.06	913.00
216.33	918.00
216.60	891.00
216.87	922.00
217.13	862.00
217.40	867.00
217.67	897.00
217.94	926.00
218.21	874.00
218.48	918.00
218.74	960.00
219.01	922.00
219.28	867.00
219.55	880.00
219.82	918.00
220.08	913.00
220.35	902.00
220.62	890.00
220.89	926.00
221.16	957.00
221.42	916.00
221.69	919.00
221.96	946.00
222.23	936.00
222.50	922.00
222.76	907.00
223.03	892.00
223.30	885.00
223.57	871.00
223.84	862.00
224.10	867.00
224.37	897.00
224.64	861.00
224.91	893.00
225.18	922.00
225.44	926.00
225.71	890.00
225.98	916.00
226.25	937.00
226.51	931.00
226.78	862.00
227.05	872.00
227.32	892.00
227.59	910.00
227.85	912.00
228.12	879.00
228.39	914.00
228.66	933.00
228.92	942.00
229.19	910.00
229.46	926.00
229.73	897.00
230.00	884.00
230.26	919.00
230.53	927.00
230.80	907.00
231.07	853.00
231.33	876.00
231.60	906.00
231.87	926.00
232.14	899.00
232.41	943.00
232.67	920.00
232.94	935.00
233.21	897.00
233.48	889.00
233.74	900.00
234.01	878.00
234.28	870.00
234.55	895.00
234.81	889.00
235.08	924.00
235.35	877.00
235.62	879.00
235.88	898.00
236.15	924.00
236.42	902.00
236.69	895.00
236.95	925.00
237.22	904.00
237.49	884.00
237.76	876.00
238.02	930.00
238.29	940.00
238.56	891.00
238.83	877.00
239.09	885.00
239.36	925.00
239.63	883.00
239.90	901.00
240.16	933.00
240.43	947.00
240.70	878.00
240.97	892.00
241.23	911.00
241.50	907.00
241.77	894.00
242.04	901.00
242.30	868.00
242.57	887.00
242.84	886.00
243.11	893.00
243.37	863.00
243.64	926.00
243.91	885.00
244.18	885.00
244.44	874.00
244.71	886.00
244.98	879.00
245.24	902.00
245.51	920.00
245.78	937.00
246.05	878.00
246.31	885.00
246.58	915.00
246.85	892.00
247.12	877.00
247.38	917.00
247.65	919.00
247.92	930.00
248.18	891.00
248.45	899.00
248.72	914.00
248.99	905.00
249.25	868.00
249.52	893.00
249.79	910.00
250.05	918.00
250.32	900.00
250.59	876.00
250.86	871.00
251.12	899.00
251.39	879.00
251.66	914.00
251.92	926.00
252.19	921.00
252.46	869.00
252.73	906.00
252.99	930.00
253.26	931.00
253.53	878.00
253.79	907.00
254.06	909.00
254.33	877.00
254.60	835.00
254.86	868.00
255.13	918.00
255.40	940.00
255.66	887.00
255.93	897.00
256.20	917.00
256.46	923.00
256.73	892.00
257.00	885.00
257.26	917.00
257.53	918.00
257.80	921.00
258.07	907.00
258.33	942.00
258.60	935.00
258.87	873.00
259.13	892.00
259.40	880.00
259.67	910.00
259.93	900.00
260.20	920.00
260.47	914.00
260.73	896.00
261.00	861.00
261.27	872.00
261.53	921.00
261.80	916.00
262.07	871.00
262.34	887.00
262.60	868.00
262.87	911.00
263.14	887.00
263.40	894.00
263.67	884.00
263.94	908.00
264.20	888.00
264.47	867.00
264.74	874.00
265.00	874.00
265.27	850.00
265.54	877.00
265.80	920.00
266.07	925.00
266.34	894.00
266.60	885.00
266.87	906.00
267.14	914.00
267.40	882.00
267.67	863.00
267.94	901.00
268.20	891.00
268.47	879.00
268.74	891.00
269.00	915.00
269.27	891.00
269.54	854.00
269.80	867.00
270.07	916.00
270.33	904.00
270.60	882.00
270.87	901.00
271.13	893.00
271.40	901.00
271.67	849.00
271.93	840.00
272.20	902.00
272.47	875.00
272.73	844.00
273.00	900.00
273.27	913.00
273.53	941.00
273.80	883.00
274.07	856.00
274.33	877.00
274.60	904.00
274.86	879.00
275.13	870.00
275.40	894.00
275.66	918.00
275.93	876.00
276.20	876.00
276.46	910.00
276.73	887.00
277.00	885.00
277.26	903.00
277.53	929.00
277.79	911.00
278.06	862.00
278.33	925.00
278.59	926.00
278.86	883.00
279.13	863.00
279.39	887.00
279.66	934.00
279.93	933.00
280.19	885.00
280.46	873.00
280.72	883.00
280.99	915.00
281.26	878.00
281.52	867.00
281.79	926.00
282.05	913.00
282.32	878.00
282.59	885.00
282.85	924.00
283.12	928.00
283.39	886.00
283.65	898.00
283.92	895.00
284.18	916.00
284.45	886.00
284.72	881.00
284.98	890.00
285.25	882.00
285.51	893.00
285.78	884.00
286.05	866.00
286.31	896.00
286.58	850.00
286.84	872.00
287.11	891.00
287.38	922.00
287.64	902.00
287.91	880.00
288.17	919.00
288.44	900.00
288.71	855.00
288.97	878.00
289.24	921.00
289.50	884.00
289.77	898.00
290.04	849.00
290.30	859.00
290.57	921.00
290.83	876.00
291.10	871.00
291.37	905.00
291.63	898.00
291.90	915.00
292.16	886.00
292.43	915.00
292.70	916.00
292.96	854.00
293.23	858.00
293.49	877.00
293.76	918.00
294.02	881.00
294.29	885.00
294.56	904.00
294.82	907.00
295.09	870.00
295.35	871.00
295.62	932.00
295.89	937.00
296.15	857.00
296.42	865.00
296.68	869.00
296.95	882.00
297.21	901.00
297.48	886.00
297.75	901.00
298.01	930.00
298.28	883.00
298.54	904.00
298.81	903.00
299.07	901.00
299.34	853.00
299.61	879.00
299.87	905.00
300.14	901.00
300.40	913.00
300.67	890.00
300.93	898.00
301.20	933.00
301.46	870.00
301.73	878.00
302.00	915.00
302.26	906.00
302.53	886.00
302.79	878.00
303.06	909.00
303.32	940.00
303.59	853.00
303.85	855.00
304.12	892.00
304.39	915.00
304.65	878.00
304.92	859.00
305.18	880.00
305.45	908.00
305.71	867.00
305.98	884.00
306.24	884.00
306.51	886.00
306.77	870.00
307.04	886.00
307.31	934.00
307.57	920.00
307.84	852.00
308.10	878.00
308.37	877.00
308.63	886.00
308.90	867.00
309.16	900.00
309.43	924.00
309.69	901.00
309.96	889.00
310.22	879.00
310.49	897.00
310.76	892.00
311.02	847.00
311.29	880.00
311.55	874.00
311.82	892.00
312.08	897.00
312.35	883.00
312.61	900.00
312.88	913.00
313.14	868.00
313.41	878.00
313.67	868.00
313.94	898.00
314.20	901.00
314.47	914.00
314.73	903.00
315.00	876.00
315.26	856.00
315.53	905.00
315.79	908.00
316.06	911.00
316.32	893.00
316.59	885.00
316.85	884.00
317.12	905.00
317.39	848.00
317.65	873.00
317.92	891.00
318.18	897.00
318.45	867.00
318.71	934.00
318.98	925.00
319.24	888.00
319.51	884.00
319.77	870.00
320.04	879.00
320.30	900.00
320.57	871.00
320.83	859.00
321.10	867.00
321.36	885.00
321.63	854.00
321.89	869.00
322.16	925.00
322.42	901.00
322.69	860.00
322.95	879.00
323.22	900.00
323.48	913.00
323.75	866.00
324.01	886.00
324.28	906.00
324.54	902.00
324.80	876.00
325.07	897.00
325.33	908.00
325.60	891.00
325.86	866.00
326.13	887.00
326.39	893.00
326.66	877.00
326.92	836.00
327.19	888.00
327.45	940.00
327.72	933.00
327.98	888.00
328.25	881.00
328.51	905.00
328.78	890.00
329.04	860.00
329.31	895.00
329.57	891.00
329.84	897.00
330.10	857.00
330.37	868.00
330.63	908.00
330.89	926.00
331.16	874.00
331.42	856.00
331.69	915.00
331.95	902.00
332.22	886.00
332.48	923.00
332.75	912.00
333.01	882.00
333.28	877.00
333.54	872.00
333.81	908.00
334.07	925.00
334.34	877.00
334.60	888.00
334.86	923.00
335.13	930.00
335.39	898.00
335.66	882.00
335.92	912.00
336.19	921.00
336.45	845.00
336.72	862.00
336.98	875.00
337.24	891.00
337.51	857.00
337.77	864.00
338.04	898.00
338.30	906.00
338.57	875.00
338.83	893.00
339.10	909.00
339.36	901.00
339.63	877.00
339.89	859.00
340.15	869.00
340.42	908.00
340.68	904.00
340.95	901.00
341.21	888.00
341.48	898.00
341.74	846.00
342.00	858.00
342.27	905.00
342.53	900.00
342.80	873.00
343.06	874.00
343.33	894.00
343.59	918.00
343.85	857.00
344.12	879.00
344.38	937.00
344.65	930.00
344.91	869.00
345.18	873.00
345.44	887.00
345.70	865.00
345.97	806.00
346.23	862.00
346.50	899.00
346.76	892.00
347.03	900.00
347.29	881.00
347.55	877.00
347.82	879.00
348.08	843.00
348.35	854.00
348.61	937.00
348.87	918.00
349.14	865.00
349.40	871.00
349.67	904.00
349.93	885.00
350.20	882.00
350.46	907.00
350.72	918.00
350.99	885.00
351.25	882.00
351.52	879.00
351.78	880.00
352.04	895.00
352.31	878.00
352.57	881.00
352.84	878.00
353.10	897.00
353.36	869.00
353.63	878.00
353.89	892.00
354.16	906.00
354.42	889.00
354.68	894.00
354.95	926.00
355.21	917.00
355.48	883.00
355.74	897.00
356.00	924.00
356.27	925.00
356.53	869.00
356.80	870.00
357.06	915.00
357.32	906.00
357.59	886.00
357.85	905.00
358.11	928.00
358.38	894.00
358.64	869.00
358.91	876.00
359.17	887.00
359.43	907.00
359.70	887.00
359.96	897.00
360.22	932.00
360.49	897.00
360.75	877.00
361.02	854.00
361.28	881.00
361.54	899.00
361.81	857.00
362.07	891.00
362.33	879.00
362.60	883.00
362.86	881.00
363.13	897.00
363.39	921.00
363.65	896.00
363.92	837.00
364.18	861.00
364.44	905.00
364.71	914.00
364.97	863.00
365.24	870.00
365.50	907.00
365.76	900.00
366.03	854.00
366.29	888.00
366.55	903.00
366.82	891.00
367.08	869.00
367.34	880.00
367.61	894.00
367.87	897.00
368.13	870.00
368.40	886.00
368.66	935.00
368.93	913.00
369.19	843.00
369.45	859.00
369.72	887.00
369.98	885.00
370.24	842.00
370.51	863.00
370.77	883.00
371.03	896.00
371.30	877.00
371.56	908.00
371.82	908.00
372.09	880.00
372.35	869.00
372.61	871.00
372.88	881.00
373.14	902.00
373.40	870.00
373.67	885.00
373.93	921.00
374.19	924.00
374.46	876.00
374.72	863.00
374.98	890.00
375.25	902.00
375.51	890.00
375.77	913.00
376.04	904.00
376.30	903.00
376.56	857.00
376.83	878.00
377.09	912.00
377.35	924.00
377.62	892.00
377.88	875.00
378.14	871.00
378.41	907.00
378.67	889.00
378.93	892.00
379.20	907.00
379.46	880.00
379.72	844.00
379.99	877.00
380.25	893.00
380.51	884.00
380.77	869.00
381.04	878.00
381.30	896.00
381.56	912.00
381.83	878.00
382.09	864.00
382.35	876.00
382.62	910.00
382.88	886.00
383.14	890.00
383.41	893.00
383.67	879.00
383.93	885.00
384.20	885.00
384.46	880.00
384.72	910.00
384.98	868.00
385.25	885.00
385.51	893.00
385.77	899.00
386.04	876.00
386.30	866.00
386.56	894.00
386.82	925.00
387.09	874.00
387.35	900.00
387.61	973.00
387.88	913.00
388.14	884.00
388.40	879.00
388.67	872.00
388.93	881.00
389.19	877.00
389.45	893.00
389.72	895.00
389.98	911.00
390.24	869.00
390.51	862.00
390.77	907.00
391.03	916.00
391.29	860.00
391.56	883.00
391.82	903.00
392.08	928.00
392.35	878.00
392.61	875.00
392.87	885.00
393.13	930.00
393.40	875.00
393.66	868.00
393.92	884.00
394.18	892.00
394.45	858.00
394.71	872.00
394.97	886.00
395.24	870.00
395.50	845.00
395.76	911.00
396.02	916.00
396.29	903.00
396.55	853.00
396.81	817.00
397.07	892.00
397.34	867.00
397.60	834.00
397.86	856.00
398.12	890.00
398.39	911.00
398.65	864.00
398.91	872.00
399.17	878.00
399.44	862.00
399.70	830.00
399.96	861.00
400.22	865.00
400.49	893.00
400.75	868.00
401.01	865.00
401.27	876.00
401.54	915.00
401.80	875.00
402.06	844.00
402.32	920.00
402.59	905.00
402.85	871.00
403.11	875.00
403.37	876.00
403.64	907.00
403.90	868.00
404.16	881.00
404.42	891.00
404.69	867.00
404.95	859.00
405.21	840.00
405.47	881.00
405.74	913.00
406.00	855.00
406.26	852.00
406.52	881.00
406.79	901.00
407.05	875.00
407.31	899.00
407.57	882.00
407.83	893.00
408.10	841.00
408.36	870.00
408.62	875.00
408.88	863.00
409.15	858.00
409.41	836.00
409.67	873.00
409.93	922.00
410.20	899.00
410.46	887.00
410.72	868.00
410.98	879.00
411.24	883.00
411.51	886.00
411.77	872.00
412.03	887.00
412.29	881.00
412.55	898.00
412.82	891.00
413.08	914.00
413.34	886.00
413.60	869.00
413.87	874.00
414.13	892.00
414.39	843.00
414.65	890.00
414.91	899.00
415.18	873.00
415.44	845.00
415.70	861.00
415.96	884.00
416.22	902.00
416.49	851.00
416.75	865.00
417.01	893.00
417.27	885.00
417.53	864.00
417.80	878.00
418.06	904.00
418.32	900.00
418.58	859.00
418.84	849.00
419.11	911.00
419.37	906.00
419.63	858.00
419.89	874.00
420.15	884.00
420.42	889.00
420.68	842.00
420.94	862.00
421.20	882.00
421.46	887.00
421.72	878.00
421.99	884.00
422.25	887.00
422.51	897.00
422.77	870.00
423.03	877.00
423.30	882.00
423.56	907.00
423.82	892.00
424.08	908.00
424.34	904.00
424.60	898.00
424.87	869.00
425.13	858.00
425.39	885.00
425.65	876.00
425.91	861.00
426.18	885.00
426.44	904.00
426.70	868.00
426.96	829.00
427.22	826.00
427.48	868.00
427.75	884.00
428.01	851.00
428.27	862.00
428.53	891.00
428.79	870.00
429.05	841.00
429.32	870.00
429.58	911.00
429.84	870.00
430.10	874.00
430.36	903.00
430.62	926.00
430.88	906.00
431.15	889.00
431.41	888.00
431.67	887.00
431.93	875.00
432.19	839.00
432.45	863.00
432.72	882.00
432.98	893.00
433.24	908.00
433.50	984.00
433.76	901.00
434.02	882.00
434.28	849.00
434.55	856.00
434.81	881.00
435.07	884.00
435.33	844.00
435.59	846.00
435.85	864.00
436.11	887.00
436.38	850.00
436.64	853.00
436.90	873.00
437.16	878.00
437.42	866.00
437.68	872.00
437.94	898.00
438.21	893.00
438.47	881.00
438.73	872.00
438.99	889.00
439.25	903.00
439.51	865.00
439.77	877.00
440.03	870.00
440.30	888.00
440.56	882.00
440.82	890.00
441.08	905.00
441.34	897.00
441.60	861.00
441.86	879.00
442.12	897.00
442.39	890.00
442.65	848.00
442.91	857.00
443.17	867.00
443.43	898.00
443.69	876.00
443.95	859.00
444.21	873.00
444.47	911.00
444.74	856.00
445.00	871.00
445.26	878.00
445.52	891.00
445.78	852.00
446.04	859.00
446.30	908.00
446.56	897.00
446.82	846.00
447.09	858.00
447.35	898.00
447.61	889.00
447.87	870.00
448.13	877.00
448.39	922.00
448.65	903.00
448.91	860.00
449.17	868.00
449.43	870.00
449.70	879.00
449.96	841.00
450.22	853.00
450.48	898.00
450.74	924.00
451.00	861.00
451.26	859.00
451.52	874.00
451.78	888.00
452.04	848.00
452.31	903.00
452.57	895.00
452.83	876.00
453.09	865.00
453.35	871.00
453.61	900.00
453.87	889.00
454.13	862.00
454.39	900.00
454.65	951.00
454.91	924.00
455.17	838.00
455.44	859.00
455.70	898.00
455.96	897.00
456.22	864.00
456.48	873.00
456.74	883.00
457.00	849.00
457.26	828.00
457.52	876.00
457.78	890.00
458.04	900.00
458.30	831.00
458.56	865.00
458.82	889.00
459.09	861.00
459.35	818.00
459.61	859.00
459.87	881.00
460.13	906.00
460.39	876.00
460.65	877.00
460.91	913.00
461.17	886.00
461.43	852.00
461.69	852.00
461.95	898.00
462.21	873.00
462.47	864.00
462.73	887.00
462.99	912.00
463.26	905.00
463.52	833.00
463.78	836.00
464.04	847.00
464.30	867.00
464.56	857.00
464.82	883.00
465.08	916.00
465.34	920.00
465.60	874.00
465.86	869.00
466.12	872.00
466.38	870.00
466.64	852.00
466.90	876.00
467.16	893.00
467.42	917.00
467.68	859.00
467.94	878.00
468.20	919.00
468.46	892.00
468.72	858.00
468.98	875.00
469.25	891.00
469.51	864.00
469.77	892.00
470.03	887.00
470.29	883.00
470.55	903.00
470.81	868.00
471.07	866.00
471.33	890.00
471.59	899.00
471.85	866.00
472.11	883.00
472.37	901.00
472.63	880.00
472.89	891.00
473.15	863.00
473.41	878.00
473.67	884.00
473.93	835.00
474.19	850.00
474.45	852.00
474.71	871.00
474.97	851.00
475.23	861.00
475.49	874.00
475.75	870.00
476.01	873.00
476.27	900.00
476.53	901.00
476.79	901.00
477.05	873.00
477.31	868.00
477.57	876.00
477.83	888.00
478.09	841.00
478.35	876.00
478.61	906.00
478.87	884.00
479.13	844.00
479.39	874.00
479.65	894.00
479.91	909.00
480.17	879.00
480.43	881.00
480.69	866.00
480.95	889.00
481.21	881.00
481.47	876.00
481.73	879.00
481.99	862.00
482.25	851.00
482.51	856.00
482.77	889.00
483.03	907.00
483.29	884.00
483.55	870.00
483.81	901.00
484.07	894.00
484.33	853.00
484.59	870.00
484.85	894.00
485.11	900.00
485.37	873.00
485.63	851.00
485.89	867.00
486.15	872.00
486.41	834.00
486.67	864.00
486.93	893.00
487.19	887.00
487.45	866.00
487.71	861.00
487.97	905.00
488.23	907.00
488.49	852.00
488.75	839.00
489.01	883.00
489.27	922.00
489.53	869.00
489.79	868.00
490.05	875.00
490.31	899.00
490.57	896.00
490.83	934.00
491.08	885.00
491.34	866.00
491.60	843.00
491.86	887.00
492.12	922.00
492.38	907.00
492.64	849.00
492.90	848.00
493.16	887.00
493.42	865.00
493.68	850.00
493.94	884.00
494.20	860.00
494.46	888.00
494.72	852.00
494.98	854.00
495.24	867.00
495.50	879.00
495.76	885.00
496.02	874.00
496.28	897.00
496.54	903.00
496.80	870.00
497.05	833.00
497.31	888.00
497.57	910.00
497.83	863.00
498.09	889.00
498.35	915.00
498.61	884.00
498.87	871.00
499.13	849.00
499.39	874.00
499.65	882.00
499.91	893.00
500.17	864.00
500.43	936.00
500.69	951.00
500.95	847.00
501.20	882.00
501.46	892.00
501.72	902.00
501.98	886.00
502.24	902.00
502.50	922.00
502.76	887.00
503.02	867.00
503.28	878.00
503.54	899.00
503.80	907.00
504.06	893.00
504.32	903.00
504.58	897.00
504.83	873.00
505.09	842.00
505.35	863.00
505.61	866.00
505.87	879.00
506.13	866.00
506.39	851.00
506.65	903.00
506.91	922.00
507.17	877.00
507.43	868.00
507.68	863.00
507.94	884.00
508.20	842.00
508.46	849.00
508.72	900.00
508.98	888.00
509.24	846.00
509.50	875.00
509.76	869.00
510.02	873.00
510.28	840.00
510.53	861.00
510.79	878.00
511.05	876.00
511.31	855.00
511.57	854.00
511.83	861.00
512.09	891.00
512.35	850.00
512.61	869.00
512.87	883.00
513.12	880.00
513.38	821.00
513.64	866.00
513.90	889.00
514.16	917.00
514.42	876.00
514.68	868.00
514.94	910.00
515.20	891.00
515.45	868.00
515.71	877.00
515.97	889.00
516.23	882.00
516.49	861.00
516.75	853.00
517.01	878.00
517.27	882.00
517.53	860.00
517.78	866.00
518.04	880.00
518.30	854.00
518.56	855.00
518.82	899.00
519.08	914.00
519.34	868.00
519.60	860.00
519.85	868.00
520.11	883.00
520.37	888.00
520.63	868.00
520.89	875.00
521.15	866.00
521.41	861.00
521.66	858.00
521.92	883.00
522.18	910.00
522.44	904.00
522.70	862.00
522.96	842.00
523.22	884.00
523.48	885.00
523.73	845.00
523.99	868.00
524.25	916.00
524.51	901.00
524.77	855.00
525.03	868.00
525.29	891.00
525.54	904.00
525.80	874.00
526.06	859.00
526.32	864.00
526.58	888.00
526.84	866.00
527.09	843.00
527.35	857.00
527.61	875.00
527.87	867.00
528.13	886.00
528.39	880.00
528.65	877.00
528.90	819.00
529.16	845.00
529.42	868.00
529.68	869.00
529.94	835.00
530.20	874.00
530.45	871.00
530.71	881.00
530.97	859.00
531.23	873.00
531.49	891.00
531.75	890.00
532.00	845.00
532.26	842.00
532.52	901.00
532.78	874.00
533.04	842.00
533.30	858.00
533.55	880.00
533.81	871.00
534.07	831.00
534.33	852.00
534.59	906.00
534.85	886.00
535.10	857.00
535.36	865.00
535.62	891.00
535.88	874.00
536.14	819.00
536.39	837.00
536.65	897.00
536.91	902.00
537.17	843.00
537.43	859.00
537.69	917.00
537.94	898.00
538.20	837.00
538.46	864.00
538.72	875.00
538.98	884.00
539.23	862.00
539.49	838.00
539.75	896.00
540.01	905.00
540.27	870.00
540.52	882.00
540.78	892.00
541.04	889.00
541.30	835.00
541.56	835.00
541.81	900.00
542.07	933.00
542.33	877.00
542.59	866.00
542.85	875.00
543.10	874.00
543.36	850.00
543.62	886.00
543.88	883.00
544.14	875.00
544.39	847.00
544.65	860.00
544.91	897.00
545.17	880.00
545.43	853.00
545.68	854.00
545.94	872.00
546.20	882.00
546.46	858.00
546.71	864.00
546.97	883.00
547.23	888.00
547.49	866.00
547.75	870.00
548.00	883.00
548.26	912.00
548.52	863.00
548.78	860.00
549.03	872.00
549.29	881.00
549.55	841.00
549.81	876.00
550.07	902.00
550.32	879.00
550.58	846.00
550.84	874.00
551.10	884.00
551.35	884.00
551.61	876.00
551.87	874.00
552.13	885.00
552.39	881.00
552.64	834.00
552.90	863.00
553.16	882.00
553.42	874.00
553.67	848.00
553.93	861.00
554.19	895.00
554.45	920.00
554.70	878.00
554.96	863.00
555.22	876.00
555.48	904.00
555.73	867.00
555.99	862.00
556.25	910.00
556.51	889.00
556.76	850.00
557.02	873.00
557.28	911.00
557.54	877.00
557.79	864.00
558.05	892.00
558.31	881.00
558.57	890.00
558.82	854.00
559.08	843.00
559.34	851.00
559.60	878.00
559.85	845.00
560.11	882.00
560.37	894.00
560.63	880.00
560.88	855.00
561.14	854.00
561.40	901.00
561.66	867.00
561.91	849.00
562.17	853.00
562.43	885.00
562.68	896.00
562.94	888.00
563.20	887.00
563.46	883.00
563.71	909.00
563.97	850.00
564.23	880.00
564.49	906.00
564.74	878.00
565.00	847.00
565.26	866.00
565.51	878.00
565.77	857.00
566.03	850.00
566.29	870.00
566.54	852.00
566.80	885.00
567.06	867.00
567.31	900.00
567.57	918.00
567.83	871.00
568.09	860.00
568.34	859.00
568.60	876.00
568.86	902.00
569.11	873.00
569.37	856.00
569.63	884.00
569.89	902.00
570.14	828.00
570.40	845.00
570.66	856.00
570.91	872.00
571.17	854.00
571.43	875.00
571.69	907.00
571.94	919.00
572.20	837.00
572.46	864.00
572.71	904.00
572.97	900.00
573.23	858.00
573.48	854.00
573.74	870.00
574.00	903.00
574.26	861.00
574.51	871.00
574.77	898.00
575.03	876.00
575.28	859.00
575.54	859.00
575.80	870.00
576.05	884.00
576.31	847.00
576.57	848.00
576.82	883.00
577.08	884.00
577.34	868.00
577.59	867.00
577.85	904.00
578.11	865.00
578.37	846.00
578.62	847.00
578.88	881.00
579.14	883.00
579.39	864.00
579.65	883.00
579.91	871.00
580.16	880.00
580.42	863.00
580.68	864.00
580.93	895.00
581.19	878.00
581.45	836.00
581.70	859.00
581.96	894.00
582.22	898.00
582.47	862.00
582.73	878.00
582.99	891.00
583.24	883.00
583.50	851.00
583.76	866.00
584.01	883.00
584.27	901.00
584.53	874.00
584.78	860.00
585.04	854.00
585.30	892.00
585.55	877.00
585.81	865.00
586.07	899.00
586.32	912.00
586.58	853.00
586.83	839.00
587.09	890.00
587.35	873.00
587.60	858.00
587.86	886.00
588.12	871.00
588.37	891.00
588.63	864.00
588.89	875.00
589.14	888.00
589.40	894.00
589.66	865.00
589.91	877.00
590.17	883.00
590.43	860.00
590.68	841.00
590.94	856.00
591.19	897.00
591.45	887.00
591.71	863.00
591.96	880.00
592.22	893.00
592.48	915.00
592.73	858.00
592.99	851.00
593.25	868.00
593.50	884.00
593.76	853.00
594.01	868.00
594.27	911.00
594.53	894.00
594.78	848.00
595.04	875.00
595.30	890.00
595.55	871.00
595.81	848.00
596.06	883.00
596.32	899.00
596.58	898.00
596.83	871.00
597.09	892.00
597.35	890.00
597.60	885.00
597.86	861.00
598.11	871.00
598.37	903.00
598.63	885.00
598.88	857.00
599.14	877.00
599.39	906.00
599.65	902.00
599.91	850.00
600.16	866.00
600.42	897.00
600.67	918.00
600.93	873.00
601.19	898.00
601.44	940.00
601.70	925.00
601.95	874.00
602.21	889.00
602.47	897.00
602.72	894.00
602.98	868.00
603.23	876.00
603.49	907.00
603.75	922.00
604.00	890.00
604.26	886.00
604.51	873.00
604.77	903.00
605.03	850.00
605.28	876.00
605.54	916.00
605.79	934.00
606.05	864.00
606.31	882.00
606.56	895.00
606.82	917.00
607.07	892.00
607.33	917.00
607.59	933.00
607.84	924.00
608.10	876.00
608.35	886.00
608.61	921.00
608.86	925.00
609.12	891.00
609.38	917.00
609.63	934.00
609.89	921.00
610.14	881.00
610.40	907.00
610.65	927.00
610.91	927.00
611.17	888.00
611.42	903.00
611.68	945.00
611.93	962.00
612.19	940.00
612.44	942.00
612.70	948.00
612.96	918.00
613.21	899.00
613.47	912.00
613.72	921.00
613.98	949.00
614.23	913.00
614.49	936.00
614.75	956.00
615.00	944.00
615.26	933.00
615.51	912.00
615.77	935.00
616.02	968.00
616.28	918.00
616.53	932.00
616.79	941.00
617.05	939.00
617.30	942.00
617.56	960.00
617.81	984.00
618.07	981.00
618.32	973.00
618.58	1004.00
618.83	1008.00
619.09	994.00
619.34	956.00
619.60	946.00
619.86	988.00
620.11	1020.00
620.37	998.00
620.62	1019.00
620.88	1043.00
621.13	1025.00
621.39	1022.00
621.64	1024.00
621.90	1043.00
622.15	1008.00
622.41	1011.00
622.66	1055.00
622.92	1105.00
623.18	1132.00
623.43	1080.00
623.69	1048.00
623.94	1090.00
624.20	1112.00
624.45	1090.00
624.71	1108.00
624.96	1111.00
625.22	1150.00
625.47	1130.00
625.73	1147.00
625.98	1154.00
626.24	1152.00
626.49	1132.00
626.75	1159.00
627.00	1228.00
627.26	1226.00
627.51	1229.00
627.77	1273.00
628.02	1289.00
628.28	1288.00
628.53	1240.00
628.79	1309.00
629.05	1355.00
629.30	1349.00
629.56	1301.00
629.81	1322.00
630.07	1330.00
630.32	1349.00
630.58	1361.00
630.83	1378.00
631.09	1426.00
631.34	1449.00
631.60	1468.00
631.85	1538.00
632.11	1650.00
632.36	1577.00
632.62	1607.00
632.87	1750.00
633.13	1704.00
633.38	1673.00
633.64	1687.00
633.89	1715.00
634.15	1672.00
634.40	1728.00
634.66	1786.00
634.91	1900.00
635.17	1992.00
635.42	2063.00
635.68	2007.00
635.93	1909.00
636.18	1896.00
636.44	2005.00
636.69	2059.00
636.95	2132.00
637.20	2162.00
637.46	2073.00
637.71	2088.00
637.97	2071.00
638.22	1998.00
638.48	1958.00
638.73	1960.00
638.99	1983.00
639.24	2126.00
639.50	2112.00
639.75	2062.00
640.01	2093.00
640.26	2161.00
640.52	2185.00
640.77	2097.00
641.03	2116.00
641.28	2105.00
641.54	2062.00
641.79	2061.00
642.04	2054.00
642.30	2028.00
642.55	2042.00
642.81	2056.00
643.06	1937.00
643.32	1913.00
643.57	1848.00
643.83	1731.00
644.08	1705.00
644.34	1668.00
644.59	1670.00
644.85	1696.00
645.10	1731.00
645.35	1720.00
645.61	1628.00
645.86	1565.00
646.12	1629.00
646.37	1662.00
646.63	1595.00
646.88	1506.00
647.14	1471.00
647.39	1404.00
647.65	1412.00
647.90	1381.00
648.15	1349.00
648.41	1362.00
648.66	1354.00
648.92	1328.00
649.17	1309.00
649.43	1241.00
649.68	1198.00
649.94	1186.00
650.19	1158.00
650.44	1187.00
650.70	1212.00
650.95	1146.00
651.21	1158.00
651.46	1155.00
651.72	1114.00
651.97	1104.00
652.23	1082.00
652.48	1102.00
652.73	1119.00
652.99	1076.00
653.24	1081.00
653.50	1041.00
653.75	999.00
654.01	988.00
654.26	999.00
654.51	995.00
654.77	1016.00
655.02	998.00
655.28	976.00
655.53	972.00
655.79	985.00
656.04	977.00
656.29	972.00
656.55	970.00
656.80	964.00
657.06	925.00
657.31	930.00
657.56	945.00
657.82	933.00
658.07	918.00
658.33	933.00
658.58	961.00
658.84	961.00
659.09	928.00
659.34	921.00
659.60	933.00
659.85	910.00
660.11	874.00
660.36	906.00
660.61	907.00
660.87	874.00
661.12	874.00
661.38	905.00
661.63	921.00
661.88	927.00
662.14	918.00
662.39	894.00
662.65	931.00
662.90	942.00
663.15	864.00
663.41	889.00
663.66	936.00
663.92	935.00
664.17	882.00
664.42	905.00
664.68	912.00
664.93	886.00
665.19	855.00
665.44	882.00
665.69	869.00
665.95	886.00
666.20	865.00
666.45	898.00
666.71	913.00
666.96	901.00
667.22	860.00
667.47	869.00
667.72	890.00
667.98	899.00
668.23	868.00
668.49	906.00
668.74	900.00
668.99	914.00
669.25	863.00
669.50	874.00
669.75	892.00
670.01	906.00
670.26	858.00
670.52	870.00
670.77	920.00
671.02	895.00
671.28	851.00
671.53	882.00
671.78	904.00
672.04	904.00
672.29	855.00
672.54	877.00
672.80	891.00
673.05	892.00
673.31	851.00
673.56	892.00
673.81	922.00
674.07	909.00
674.32	884.00
674.57	869.00
674.83	866.00
675.08	894.00
675.33	864.00
675.59	878.00
675.84	887.00
676.09	868.00
676.35	863.00
676.60	873.00
676.86	887.00
677.11	902.00
677.36	850.00
677.62	867.00
677.87	910.00
678.12	922.00
678.38	862.00
678.63	873.00
678.88	908.00
679.14	912.00
679.39	857.00
679.64	869.00
679.90	871.00
680.15	899.00
680.40	886.00
680.66	865.00
680.91	887.00
681.16	887.00
681.42	850.00
681.67	844.00
681.92	862.00
682.18	902.00
682.43	852.00
682.68	861.00
682.94	877.00
683.19	858.00
683.44	847.00
683.70	877.00
683.95	889.00
684.20	892.00
684.46	886.00
684.71	873.00
684.96	871.00
685.22	895.00
685.47	874.00
685.72	886.00
685.98	913.00
686.23	849.00
686.48	848.00
686.74	917.00
686.99	925.00
687.24	886.00
687.50	842.00
687.75	858.00
688.00	876.00
688.25	887.00
688.51	853.00
688.76	865.00
689.01	855.00
689.27	863.00
689.52	843.00
689.77	861.00
690.03	844.00
690.28	870.00
690.53	859.00
690.79	877.00
691.04	878.00
691.29	893.00
691.54	847.00
691.80	845.00
692.05	862.00
692.30	878.00
692.56	864.00
692.81	875.00
693.06	862.00
693.32	872.00
693.57	854.00
693.82	871.00
694.07	881.00
694.33	884.00
694.58	843.00
694.83	876.00
695.09	873.00
695.34	896.00
695.59	870.00
695.84	873.00
696.10	892.00
696.35	896.00
696.60	844.00
696.86	851.00
697.11	864.00
697.36	893.00
697.61	852.00
697.87	874.00
698.12	867.00
698.37	876.00
698.63	873.00
698.88	866.00
699.13	869.00
699.38	872.00
699.64	855.00
699.89	858.00
700.14	856.00
700.39	857.00
700.65	855.00
700.90	873.00
701.15	868.00
701.40	900.00
701.66	860.00
701.91	876.00
702.16	870.00
702.42	862.00
702.67	826.00
702.92	836.00
703.17	859.00
703.43	867.00
703.68	852.00
703.93	892.00
704.18	919.00
704.44	871.00
704.69	863.00
704.94	867.00
705.19	872.00
705.45	899.00
705.70	870.00
705.95	876.00
706.20	875.00
706.46	885.00
706.71	862.00
706.96	877.00
707.21	880.00
707.47	874.00
707.72	853.00
707.97	869.00
708.22	896.00
708.48	911.00
708.73	843.00
708.98	834.00
709.23	868.00
709.49	869.00
709.74	866.00
709.99	865.00
710.24	870.00
710.50	868.00
710.75	862.00
711.00	880.00
711.25	884.00
711.50	859.00
711.76	843.00
712.01	842.00
712.26	851.00
712.51	872.00
712.77	847.00
713.02	860.00
713.27	861.00
713.52	877.00
713.78	850.00
714.03	876.00
714.28	866.00
714.53	897.00
714.78	872.00
715.04	904.00
715.29	881.00
715.54	901.00
715.79	845.00
716.05	873.00
716.30	886.00
716.55	891.00
716.80	869.00
717.05	893.00
717.31	887.00
717.56	888.00
717.81	864.00
718.06	848.00
718.31	854.00
718.57	875.00
718.82	858.00
719.07	871.00
719.32	873.00
719.57	885.00
719.83	863.00
720.08	885.00
720.33	874.00
720.58	844.00
720.83	820.00
721.09	892.00
721.34	893.00
721.59	896.00
721.84	848.00
722.09	883.00
722.35	894.00
722.60	865.00
722.85	836.00
723.10	860.00
723.35	867.00
723.61	894.00
723.86	887.00
724.11	869.00
724.36	873.00
724.61	869.00
724.87	853.00
725.12	846.00
725.37	842.00
725.62	841.00
725.87	830.00
726.12	828.00
726.38	839.00
726.63	876.00
726.88	864.00
727.13	874.00
727.38	856.00
727.64	878.00
727.89	862.00
728.14	866.00
728.39	840.00
728.64	852.00
728.89	846.00
729.15	878.00
729.40	863.00
729.65	884.00
729.90	847.00
730.15	867.00
730.40	876.00
730.66	861.00
730.91	833.00
731.16	861.00
731.41	856.00
731.66	877.00
731.91	858.00
732.17	878.00
732.42	877.00
732.67	860.00
732.92	829.00
733.17	872.00
733.42	878.00
733.68	875.00
733.93	829.00
734.18	865.00
734.43	845.00
734.68	863.00
734.93	858.00
735.18	890.00
735.44	895.00
735.69	873.00
735.94	826.00
736.19	870.00
736.44	873.00
736.69	915.00
736.95	858.00
737.20	873.00
737.45	888.00
737.70	881.00
737.95	856.00
738.20	883.00
738.45	897.00
738.70	885.00
738.96	860.00
739.21	883.00
739.46	874.00
739.71	889.00
739.96	860.00
740.21	901.00
740.46	942.00
740.72	903.00
740.97	851.00
741.22	871.00
741.47	873.00
741.72	887.00
741.97	852.00
742.22	857.00
742.47	875.00
742.73	874.00
742.98	826.00
743.23	837.00
743.48	850.00
743.73	894.00
743.98	866.00
744.23	859.00
744.48	892.00
744.74	862.00
744.99	838.00
745.24	875.00
745.49	882.00
745.74	877.00
745.99	852.00
746.24	854.00
746.49	853.00
746.74	850.00
747.00	868.00
747.25	867.00
747.50	851.00
747.75	853.00
748.00	808.00
748.25	847.00
748.50	854.00
748.75	883.00
749.00	890.00
749.26	925.00
749.51	889.00
749.76	896.00
750.01	854.00
750.26	871.00
750.51	897.00
750.76	877.00
751.01	842.00
751.26	848.00
751.51	878.00
751.77	887.00
752.02	867.00
752.27	864.00
752.52	865.00
752.77	885.00
753.02	845.00
753.27	866.00
753.52	874.00
753.77	876.00
754.02	870.00
754.27	854.00
754.52	836.00
754.78	880.00
755.03	861.00
755.28	865.00
755.53	869.00
755.78	875.00
756.03	857.00
756.28	880.00
756.53	876.00
756.78	873.00
757.03	855.00
757.28	880.00
757.53	886.00
757.79	848.00
758.04	836.00
758.29	894.00
758.54	875.00
758.79	882.00
759.04	834.00
759.29	824.00
759.54	848.00
759.79	841.00
760.04	844.00
760.29	857.00
760.54	853.00
760.79	861.00
761.04	845.00
761.29	848.00
761.55	849.00
761.80	877.00
762.05	842.00
762.30	864.00
762.55	861.00
762.80	882.00
763.05	886.00
763.30	887.00
763.55	897.00
763.80	882.00
764.05	837.00
764.30	865.00
764.55	899.00
764.80	881.00
765.05	835.00
765.30	881.00
765.55	893.00
765.80	877.00
766.05	830.00
766.30	862.00
766.56	865.00
766.81	870.00
767.06	861.00
767.31	891.00
767.56	861.00
767.81	878.00
768.06	850.00
768.31	862.00
768.56	879.00
768.81	918.00
769.06	847.00
769.31	858.00
769.56	887.00
769.81	878.00
770.06	832.00
770.31	838.00
770.56	856.00
770.81	852.00
771.06	837.00
771.31	869.00
771.56	885.00
771.81	874.00
772.06	834.00
772.31	885.00
772.56	886.00
772.81	884.00
773.06	843.00
773.31	874.00
773.56	878.00
773.81	845.00
774.06	833.00
774.31	857.00
774.56	869.00
774.81	879.00
775.06	875.00
775.31	899.00
775.56	893.00
775.81	872.00
776.06	835.00
776.31	857.00
776.56	857.00
776.82	873.00
777.07	834.00
777.32	846.00
777.57	856.00
777.82	900.00
778.07	859.00
778.32	858.00
778.57	872.00
778.82	882.00
779.07	842.00
779.32	863.00
779.57	857.00
779.82	854.00
780.07	835.00
780.32	850.00
780.56	866.00
780.81	899.00
781.06	842.00
781.31	852.00
781.56	905.00
781.81	886.00
782.06	848.00
782.31	880.00
782.56	866.00
782.81	898.00
783.06	856.00
783.31	866.00
783.56	856.00
783.81	873.00
784.06	853.00
784.31	883.00
784.56	844.00
784.81	900.00
785.06	861.00
785.31	876.00
785.56	851.00
785.81	852.00
786.06	833.00
786.31	869.00
786.56	876.00
786.81	885.00
787.06	872.00
787.31	859.00
787.56	857.00
787.81	842.00
788.06	842.00
788.31	872.00
788.56	857.00
788.81	882.00
789.06	859.00
789.31	870.00
789.56	867.00
789.81	865.00
790.06	833.00
790.31	881.00
790.56	868.00
790.80	857.00
791.05	845.00
791.30	844.00
791.55	858.00
791.80	864.00
792.05	836.00
792.30	840.00
792.55	845.00
792.80	866.00
793.05	833.00
793.30	846.00
793.55	870.00
793.80	887.00
794.05	836.00
794.30	861.00
794.55	855.00
794.80	877.00
795.05	843.00
795.30	848.00
795.54	853.00
795.79	872.00
796.04	845.00
796.29	873.00
796.54	869.00
796.79	892.00
797.04	857.00
797.29	871.00
797.54	869.00
797.79	872.00
798.04	860.00
798.29	855.00
798.54	847.00
798.79	857.00
799.04	836.00
799.29	865.00
799.53	881.00
799.78	866.00
800.03	840.00
800.28	831.00
800.53	844.00
800.78	899.00
801.03	840.00
801.28	850.00
801.53	857.00
801.78	891.00
802.03	851.00
802.28	868.00
802.52	882.00
802.77	896.00
803.02	878.00
803.27	878.00
803.52	858.00
803.77	876.00
804.02	872.00
804.27	898.00
804.52	877.00
804.77	881.00
805.02	847.00
805.27	878.00
805.51	863.00
805.76	889.00
806.01	840.00
806.26	858.00
806.51	870.00
806.76	911.00
807.01	880.00
807.26	855.00
807.51	894.00
807.76	857.00
808.00	837.00
808.25	854.00
808.50	874.00
808.75	872.00
809.00	849.00
809.25	863.00
809.50	872.00
809.75	886.00
810.00	881.00
810.24	867.00
810.49	838.00
810.74	842.00
810.99	851.00
811.24	868.00
811.49	864.00
811.74	877.00
811.99	833.00
812.24	868.00
812.48	834.00
812.73	836.00
812.98	812.00
813.23	842.00
813.48	861.00
813.73	858.00
813.98	807.00
814.23	834.00
814.47	830.00
814.72	837.00
814.97	831.00
815.22	873.00
815.47	852.00
815.72	867.00
815.97	836.00
816.22	861.00
816.46	865.00
816.71	907.00
816.96	868.00
817.21	881.00
817.46	850.00
817.71	868.00
817.96	857.00
818.20	854.00
818.45	835.00
818.70	869.00
818.95	847.00
819.20	872.00
819.45	859.00
819.70	869.00
819.94	839.00
820.19	863.00
820.44	854.00
820.69	880.00
820.94	853.00
821.19	871.00
821.44	925.00
821.68	938.00
821.93	860.00
822.18	889.00
822.43	887.00
822.68	888.00
822.93	860.00
823.17	878.00
823.42	881.00
823.67	860.00
823.92	836.00
824.17	861.00
824.42	865.00
824.67	881.00
824.91	865.00
825.16	863.00
825.41	875.00
825.66	869.00
825.91	836.00
826.16	854.00
826.40	873.00
826.65	882.00
826.90	860.00
827.15	853.00
827.40	864.00
827.65	903.00
827.89	815.00
828.14	854.00
828.39	871.00
828.64	868.00
828.89	822.00
829.13	841.00
829.38	847.00
829.63	880.00
829.88	846.00
830.13	846.00
830.38	856.00
830.62	861.00
830.87	848.00
831.12	870.00
831.37	890.00
831.62	905.00
831.86	854.00
832.11	861.00
832.36	841.00
832.61	863.00
832.86	858.00
833.10	874.00
833.35	880.00
833.60	894.00
833.85	859.00
834.10	878.00
834.35	893.00
834.59	895.00
834.84	847.00
835.09	878.00
835.34	856.00
835.59	849.00
835.83	854.00
836.08	875.00
836.33	863.00
836.58	874.00
836.83	851.00
837.07	864.00
837.32	880.00
837.57	861.00
837.82	846.00
838.06	880.00
838.31	882.00
838.56	880.00
838.81	826.00
839.06	865.00
839.30	868.00
839.55	882.00
839.80	848.00
840.05	865.00
840.30	881.00
840.54	893.00
840.79	844.00
841.04	882.00
841.29	883.00
841.53	887.00
841.78	855.00
842.03	838.00
842.28	843.00
842.53	860.00
842.77	875.00
843.02	865.00
843.27	868.00
843.52	879.00
843.76	868.00
844.01	878.00
844.26	867.00
844.51	881.00
844.75	843.00
845.00	849.00
845.25	862.00
845.50	885.00
845.75	858.00
845.99	864.00
846.24	875.00
846.49	883.00
846.74	831.00
846.98	829.00
847.23	854.00
847.48	872.00
847.73	829.00
847.97	848.00
848.22	891.00
848.47	880.00
848.72	849.00
848.96	853.00
849.21	869.00
849.46	841.00
849.71	826.00
849.95	840.00
850.20	853.00
850.45	871.00
850.70	840.00
850.94	871.00
851.19	866.00
851.44	853.00
851.69	824.00
851.93	859.00
852.18	879.00
852.43	884.00
852.68	873.00
852.92	892.00
853.17	900.00
853.42	883.00
853.66	868.00
853.91	901.00
854.16	861.00
854.41	900.00
854.65	858.00
854.90	870.00
855.15	864.00
855.40	872.00
855.64	865.00
855.89	859.00
856.14	852.00
856.39	851.00
856.63	843.00
856.88	862.00
857.13	854.00
857.37	838.00
857.62	834.00
857.87	833.00
858.12	858.00
858.36	882.00
858.61	816.00
858.86	851.00
859.10	876.00
859.35	870.00
859.60	844.00
859.85	828.00
860.09	844.00
860.34	896.00
860.59	852.00
860.83	855.00
861.08	845.00
861.33	887.00
861.58	868.00
861.82	841.00
862.07	848.00
862.32	873.00
862.56	828.00
862.81	865.00
863.06	864.00
863.30	851.00
863.55	858.00
863.80	870.00
864.05	876.00
864.29	856.00
864.54	861.00
864.79	864.00
865.03	870.00
865.28	878.00
865.53	855.00
865.77	855.00
866.02	885.00
866.27	885.00
866.51	865.00
866.76	835.00
867.01	849.00
867.26	888.00
867.50	854.00
867.75	831.00
868.00	879.00
868.24	907.00
868.49	852.00
868.74	857.00
868.98	857.00
869.23	866.00
869.48	862.00
869.72	844.00
869.97	865.00
870.22	895.00
870.46	865.00
870.71	867.00
870.96	861.00
871.20	877.00
871.45	826.00
871.70	858.00
871.94	887.00
872.19	886.00
872.44	861.00
872.68	857.00
872.93	859.00
873.18	880.00
873.42	863.00
873.67	862.00
873.92	887.00
874.16	874.00
874.41	839.00
874.66	867.00
874.90	868.00
875.15	893.00
875.40	877.00
875.64	869.00
875.89	856.00
876.14	869.00
876.38	860.00
876.63	868.00
876.88	868.00
877.12	866.00
877.37	841.00
877.62	864.00
877.86	866.00
878.11	872.00
878.36	825.00
878.60	876.00
878.85	880.00
879.09	876.00
879.34	851.00
879.59	871.00
879.83	878.00
880.08	903.00
880.33	883.00
880.57	879.00
880.82	867.00
881.07	873.00
881.31	860.00
881.56	848.00
881.80	847.00
882.05	865.00
882.30	830.00
882.54	841.00
882.79	887.00
883.04	914.00
883.28	883.00
883.53	869.00
883.77	869.00
884.02	878.00
884.27	826.00
884.51	839.00
884.76	854.00
885.01	877.00
885.25	845.00
885.50	883.00
885.74	869.00
885.99	890.00
886.24	852.00
886.48	855.00
886.73	868.00
886.98	896.00
887.22	857.00
887.47	877.00
887.71	886.00
887.96	880.00
888.21	877.00
888.45	853.00
888.70	840.00
888.94	868.00
889.19	822.00
889.44	834.00
889.68	871.00
889.93	895.00
890.17	874.00
890.42	855.00
890.67	882.00
890.91	951.00
891.16	845.00
891.40	852.00
891.65	877.00
891.90	884.00
892.14	834.00
892.39	864.00
892.63	865.00
892.88	891.00
893.13	873.00
893.37	869.00
893.62	862.00
893.86	884.00
894.11	853.00
894.36	857.00
894.60	857.00
894.85	864.00
895.09	855.00
895.34	896.00
895.59	869.00
895.83	869.00
896.08	837.00
896.32	845.00
896.57	866.00
896.81	873.00
897.06	856.00
897.31	856.00
897.55	883.00
897.80	865.00
898.04	813.00
898.29	852.00
898.53	867.00
898.78	881.00
899.03	873.00
899.27	853.00
899.52	872.00
899.76	879.00
900.01	852.00
900.25	876.00
900.50	889.00
900.75	883.00
900.99	854.00
901.24	932.00
901.48	874.00
901.73	892.00
901.97	859.00
902.22	867.00
902.47	870.00
902.71	881.00
902.96	846.00
903.20	873.00
903.45	873.00
903.69	882.00
903.94	870.00
904.18	845.00
904.43	871.00
904.68	875.00
904.92	835.00
905.17	869.00
905.41	869.00
905.66	880.00
905.90	881.00
906.15	876.00
906.39	885.00
906.64	886.00
906.88	830.00
907.13	849.00
907.38	885.00
907.62	899.00
907.87	852.00
908.11	868.00
908.36	858.00
908.60	874.00
908.85	817.00
909.09	858.00
909.34	853.00
909.58	869.00
909.83	828.00
910.07	850.00
910.32	886.00
910.56	901.00
910.81	838.00
911.06	872.00
911.30	869.00
911.55	879.00
911.79	845.00
912.04	851.00
912.28	857.00
912.53	881.00
912.77	866.00
913.02	855.00
913.26	851.00
913.51	875.00
913.75	854.00
914.00	857.00
914.24	873.00
914.49	874.00
914.73	863.00
914.98	883.00
915.22	897.00
915.47	879.00
915.71	843.00
915.96	876.00
916.20	868.00
916.45	845.00
916.69	843.00
916.94	842.00
917.18	865.00
917.43	876.00
917.67	841.00
917.92	836.00
918.16	883.00
918.41	878.00
918.65	836.00
918.90	838.00
919.14	829.00
919.39	854.00
919.63	840.00
919.88	850.00
920.12	885.00
920.37	872.00
920.61	829.00
920.86	869.00
921.10	868.00
921.35	837.00
921.59	840.00
921.84	860.00
922.08	867.00
922.33	883.00
922.57	845.00
922.82	848.00
923.06	868.00
923.31	888.00
923.55	837.00
923.80	860.00
924.04	853.00
924.29	890.00
924.53	845.00
924.78	844.00
925.02	857.00
925.27	868.00
925.51	853.00
925.76	884.00
926.00	858.00
926.25	876.00
926.49	825.00
926.73	869.00
926.98	862.00
927.22	884.00
927.47	848.00
927.71	840.00
927.96	872.00
928.20	861.00
928.45	855.00
928.69	892.00
928.94	895.00
929.18	873.00
929.43	880.00
929.67	877.00
929.91	863.00
930.16	884.00
930.40	829.00
930.65	832.00
930.89	865.00
931.14	890.00
931.38	864.00
931.63	871.00
931.87	893.00
932.12	876.00
932.36	841.00
932.60	868.00
932.85	890.00
933.09	869.00
933.34	850.00
933.58	879.00
933.83	853.00
934.07	889.00
934.32	859.00
934.56	888.00
934.80	907.00
935.05	924.00
935.29	873.00
935.54	887.00
935.78	876.00
936.03	858.00
936.27	823.00
936.52	848.00
936.76	862.00
937.00	873.00
937.25	856.00
937.49	872.00
937.74	887.00
937.98	878.00
938.23	818.00
938.47	833.00
938.71	855.00
938.96	868.00
939.20	825.00
939.45	835.00
939.69	850.00
939.94	878.00
940.18	841.00
940.42	868.00
940.67	874.00
940.91	857.00
941.16	827.00
941.40	839.00
941.64	852.00
941.89	869.00
942.13	824.00
942.38	870.00
942.62	945.00
942.87	901.00
943.11	865.00
943.35	841.00
943.60	856.00
943.84	907.00
944.09	875.00
944.33	885.00
944.57	900.00
944.82	870.00
945.06	837.00
945.31	863.00
945.55	854.00
945.79	871.00
946.04	840.00
946.28	848.00
946.53	854.00
946.77	863.00
947.01	822.00
947.26	883.00
947.50	876.00
947.75	873.00
947.99	862.00
948.23	882.00
948.48	877.00
948.72	881.00
948.97	864.00
949.21	857.00
949.45	863.00
949.70	880.00
949.94	858.00
950.18	858.00
950.43	863.00
950.67	863.00
950.92	858.00
951.16	860.00
951.40	872.00
951.65	878.00
951.89	863.00
952.13	881.00
952.38	880.00
952.62	884.00
952.87	839.00
953.11	874.00
953.35	891.00
953.60	882.00
953.84	818.00
954.08	823.00
954.33	863.00
954.57	862.00
954.82	852.00
955.06	848.00
955.30	861.00
955.55	858.00
955.79	847.00
956.03	849.00
956.28	858.00
956.52	857.00
956.76	849.00
957.01	854.00
957.25	870.00
957.50	871.00
957.74	844.00
957.98	854.00
958.23	875.00
958.47	876.00
958.71	856.00
958.96	883.00
959.20	914.00
959.44	869.00
959.69	850.00
959.93	866.00
960.17	865.00
960.42	880.00
960.66	860.00
960.90	869.00
961.15	869.00
961.39	862.00
961.64	827.00
961.88	833.00
962.12	879.00
962.37	883.00
962.61	844.00
962.85	852.00
963.10	876.00
963.34	882.00
963.58	836.00
963.83	851.00
964.07	851.00
964.31	859.00
964.56	873.00
964.80	859.00
965.04	863.00
965.29	868.00
965.53	832.00
965.77	844.00
966.02	844.00
966.26	852.00
966.50	833.00
966.74	878.00
966.99	894.00
967.23	870.00
967.47	851.00
967.72	878.00
967.96	881.00
968.20	870.00
968.45	835.00
968.69	855.00
968.93	858.00
969.18	873.00
969.42	873.00
969.66	877.00
969.91	859.00
970.15	887.00
970.39	838.00
970.64	869.00
970.88	885.00
971.12	890.00
971.36	853.00
971.61	859.00
971.85	872.00
972.09	861.00
972.34	841.00
972.58	854.00
972.82	857.00
973.07	874.00
973.31	821.00
973.55	851.00
973.79	880.00
974.04	888.00
974.28	862.00
974.52	881.00
974.77	875.00
975.01	897.00
975.25	855.00
975.50	867.00
975.74	879.00
975.98	875.00
976.22	869.00
976.47	845.00
976.71	859.00
976.95	883.00
977.20	870.00
977.44	862.00
977.68	853.00
977.92	874.00
978.17	840.00
978.41	857.00
978.65	879.00
978.90	873.00
979.14	861.00
979.38	868.00
979.62	858.00
979.87	858.00
980.11	818.00
980.35	851.00
980.59	874.00
980.84	888.00
981.08	855.00
981.32	865.00
981.57	878.00
981.81	872.00
982.05	838.00
982.29	835.00
982.54	855.00
982.78	877.00
983.02	848.00
983.26	875.00
983.51	892.00
983.75	885.00
983.99	839.00
984.23	875.00
984.48	868.00
984.72	896.00
984.96	841.00
985.20	847.00
985.45	898.00
985.69	877.00
985.93	841.00
986.17	874.00
986.42	874.00
986.66	871.00
986.90	808.00
987.14	830.00
987.39	870.00
987.63	878.00
987.87	842.00
988.11	855.00
988.36	872.00
988.60	871.00
988.84	864.00
989.08	840.00
989.33	880.00
989.57	885.00
989.81	830.00
990.05	830.00
990.30	851.00
990.54	856.00
990.78	842.00
991.02	833.00
991.27	849.00
991.51	858.00
991.75	833.00
991.99	870.00
992.23	872.00
992.48	854.00
992.72	833.00
992.96	844.00
993.20	848.00
993.45	857.00
993.69	874.00
993.93	832.00
994.17	865.00
994.41	861.00
994.66	834.00
994.90	855.00
995.14	903.00
995.38	878.00
995.63	863.00
995.87	855.00
996.11	900.00
996.35	886.00
996.59	840.00
996.84	827.00
997.08	876.00
997.32	870.00
997.56	853.00
997.80	836.00
998.05	843.00
998.29	857.00
998.53	848.00
998.77	863.00
999.01	884.00
999.26	868.00
999.50	844.00
999.74	834.00
999.98	879.00
1000.22	875.00
1000.47	837.00
1000.71	844.00
1000.95	877.00
1001.19	877.00
1001.43	849.00
1001.68	848.00
1001.92	855.00
1002.16	865.00
1002.40	822.00
1002.64	842.00
1002.89	862.00
1003.13	878.00
1003.37	862.00
1003.61	849.00
1003.85	857.00
1004.10	853.00
1004.34	854.00
1004.58	854.00
1004.82	878.00
1005.06	861.00
1005.30	840.00
1005.55	842.00
1005.79	872.00
1006.03	857.00
1006.27	845.00
1006.51	853.00
1006.76	866.00
1007.00	872.00
1007.24	847.00
1007.48	862.00
1007.72	891.00
1007.96	882.00
1008.21	857.00
1008.45	862.00
1008.69	881.00
1008.93	896.00
1009.17	867.00
1009.41	884.00
1009.66	898.00
1009.90	868.00
1010.14	829.00
1010.38	867.00
1010.62	888.00
1010.86	888.00
1011.10	858.00
1011.35	851.00
1011.59	868.00
1011.83	841.00
1012.07	828.00
1012.31	846.00
1012.55	861.00
1012.80	870.00
1013.04	878.00
1013.28	883.00
1013.52	858.00
1013.76	878.00
1014.00	840.00
1014.24	842.00
1014.49	869.00
1014.73	889.00
1014.97	872.00
1015.21	868.00
1015.45	892.00
1015.69	873.00
1015.93	864.00
1016.18	855.00
1016.42	884.00
1016.66	888.00
1016.90	847.00
1017.14	833.00
1017.38	848.00
1017.62	871.00
1017.87	853.00
1018.11	861.00
1018.35	870.00
1018.59	875.00
1018.83	841.00
1019.07	867.00
1019.31	886.00
1019.55	894.00
1019.80	853.00
1020.04	872.00
1020.28	875.00
1020.52	881.00
1020.76	834.00
1021.00	819.00
1021.24	853.00
1021.48	854.00
1021.73	852.00
1021.97	869.00
1022.21	860.00
1022.45	871.00
1022.69	861.00
1022.93	846.00
1023.17	874.00
1023.41	904.00
1023.65	855.00
1023.90	876.00
1024.14	883.00
1024.38	840.00
1024.62	828.00
1024.86	853.00
1025.10	851.00
1025.34	852.00
1025.58	834.00
1025.82	857.00
1026.07	889.00
1026.31	883.00
1026.55	836.00
1026.79	844.00
1027.03	868.00
1027.27	872.00
1027.51	837.00
1027.75	825.00
1027.99	841.00
1028.23	896.00
1028.47	862.00
1028.72	845.00
1028.96	876.00
1029.20	881.00
1029.44	853.00
1029.68	862.00
1029.92	869.00
1030.16	881.00
1030.40	836.00
1030.64	845.00
1030.88	849.00
1031.12	834.00
1031.37	818.00
1031.61	859.00
1031.85	892.00
1032.09	889.00
1032.33	856.00
1032.57	883.00
1032.81	862.00
1033.05	888.00
1033.29	865.00
1033.53	866.00
1033.77	920.00
1034.01	902.00
1034.25	858.00
1034.50	872.00
1034.74	885.00
1034.98	904.00
1035.22	874.00
1035.46	863.00
1035.70	894.00
1035.94	886.00
1036.18	861.00
1036.42	853.00
1036.66	857.00
1036.90	864.00
1037.14	834.00
1037.38	846.00
1037.62	866.00
1037.86	854.00
1038.10	852.00
1038.35	871.00
1038.59	880.00
1038.83	892.00
1039.07	858.00
1039.31	884.00
1039.55	848.00
1039.79	860.00
1040.03	820.00
1040.27	840.00
1040.51	886.00
1040.75	892.00
1040.99	853.00
1041.23	857.00
1041.47	855.00
1041.71	891.00
1041.95	847.00
1042.19	853.00
1042.43	899.00
1042.67	903.00
1042.91	861.00
1043.15	864.00
1043.39	901.00
1043.64	869.00
1043.88	829.00
1044.12	862.00
1044.36	912.00
1044.60	895.00
1044.84	866.00
1045.08	863.00
1045.32	882.00
1045.56	894.00
1045.80	870.00
1046.04	870.00
1046.28	904.00
1046.52	890.00
1046.76	851.00
1047.00	848.00
1047.24	888.00
1047.48	858.00
1047.72	828.00
1047.96	841.00
1048.20	870.00
1048.44	878.00
1048.68	841.00
1048.92	857.00
1049.16	860.00
1049.40	876.00
1049.64	842.00
1049.88	872.00
1050.12	892.00
1050.36	912.00
1050.60	864.00
1050.84	857.00
1051.08	863.00
1051.32	854.00
1051.56	845.00
1051.80	851.00
1052.04	862.00
1052.28	893.00
1052.52	834.00
1052.76	826.00
1053.00	847.00
1053.24	857.00
1053.48	846.00
1053.72	856.00
1053.96	877.00
1054.20	883.00
1054.44	873.00
1054.68	885.00
1054.92	884.00
1055.16	830.00
1055.40	840.00
1055.64	880.00
1055.88	875.00
1056.12	892.00
1056.36	828.00
1056.60	844.00
1056.84	909.00
1057.08	882.00
1057.32	860.00
1057.56	850.00
1057.80	851.00
1058.04	881.00
1058.28	839.00
1058.52	854.00
1058.76	892.00
1059.00	911.00
1059.24	843.00
1059.48	844.00
1059.72	877.00
1059.96	860.00
1060.20	866.00
1060.44	885.00
1060.68	899.00
1060.92	870.00
1061.16	824.00
1061.40	843.00
1061.64	873.00
1061.88	872.00
1062.11	838.00
1062.35	838.00
1062.59	854.00
1062.83	888.00
1063.07	854.00
1063.31	838.00
1063.55	858.00
1063.79	896.00
1064.03	843.00
1064.27	839.00
1064.51	862.00
1064.75	864.00
1064.99	834.00
1065.23	854.00
1065.47	861.00
1065.71	881.00
1065.95	852.00
1066.19	858.00
1066.43	887.00
1066.67	900.00
1066.91	875.00
1067.15	863.00
1067.38	854.00
1067.62	866.00
1067.86	846.00
1068.10	868.00
1068.34	907.00
1068.58	906.00
1068.82	855.00
1069.06	832.00
1069.30	864.00
1069.54	895.00
1069.78	879.00
1070.02	877.00
1070.26	898.00
1070.50	903.00
1070.74	850.00
1070.98	870.00
1071.21	871.00
1071.45	860.00
1071.69	824.00
1071.93	842.00
1072.17	857.00
1072.41	882.00
1072.65	883.00
1072.89	886.00
1073.13	888.00
1073.37	878.00
1073.61	854.00
1073.85	844.00
1074.09	829.00
1074.32	847.00
1074.56	844.00
1074.80	927.00
1075.04	1124.00
1075.28	984.00
1075.52	858.00
1075.76	858.00
1076.00	889.00
1076.24	877.00
1076.48	859.00
1076.72	872.00
1076.96	892.00
1077.19	886.00
1077.43	848.00
1077.67	869.00
1077.91	877.00
1078.15	858.00
1078.39	849.00
1078.63	853.00
1078.87	888.00
1079.11	888.00
1079.35	857.00
1079.58	856.00
1079.82	869.00
1080.06	848.00
1080.30	813.00
1080.54	864.00
1080.78	908.00
1081.02	858.00
1081.26	855.00
1081.50	871.00
1081.74	866.00
1081.97	882.00
1082.21	858.00
1082.45	875.00
1082.69	865.00
1082.93	844.00
1083.17	852.00
1083.41	860.00
1083.65	901.00
1083.88	888.00
1084.12	851.00
1084.36	866.00
1084.60	892.00
1084.84	882.00
1085.08	833.00
1085.32	866.00
1085.56	898.00
1085.80	865.00
1086.03	852.00
1086.27	848.00
1086.51	866.00
1086.75	891.00
1086.99	856.00
1087.23	834.00
1087.47	864.00
1087.70	852.00
1087.94	851.00
1088.18	876.00
1088.42	916.00
1088.66	886.00
1088.90	836.00
1089.14	860.00
1089.38	873.00
1089.61	891.00
1089.85	859.00
1090.09	837.00
1090.33	898.00
1090.57	886.00
1090.81	810.00
1091.05	847.00
1091.28	874.00
1091.52	881.00
1091.76	832.00
1092.00	848.00
1092.24	872.00
1092.48	893.00
1092.71	834.00
1092.95	859.00
1093.19	874.00
1093.43	876.00
1093.67	832.00
1093.91	858.00
1094.15	892.00
1094.38	902.00
1094.62	861.00
1094.86	853.00
1095.10	840.00
1095.34	860.00
1095.58	847.00
1095.81	863.00
1096.05	897.00
1096.29	901.00
1096.53	832.00
1096.77	877.00
1097.01	853.00
1097.24	881.00
1097.48	832.00
1097.72	848.00
1097.96	873.00
1098.20	888.00
1098.44	844.00
1098.67	828.00
1098.91	891.00
1099.15	894.00
1099.39	851.00
1099.63	861.00
1099.86	868.00
1100.10	869.00
1100.34	869.00
1100.58	842.00
1100.82	864.00
1101.06	864.00
1101.29	847.00
1101.53	864.00
1101.77	878.00
1102.01	860.00
1102.25	849.00
1102.48	875.00
1102.72	917.00
1102.96	881.00
1103.20	832.00
1103.44	848.00
1103.67	880.00
1103.91	886.00
1104.15	830.00
1104.39	842.00
1104.63	868.00
1104.86	845.00
1105.10	827.00
1105.34	860.00
1105.58	863.00
1105.82	866.00
1106.05	857.00
1106.29	858.00
1106.53	878.00
1106.77	900.00
1107.01	834.00
1107.24	852.00
1107.48	915.00
1107.72	890.00
1107.96	815.00
1108.20	859.00
1108.43	891.00
1108.67	870.00
1108.91	845.00
1109.15	847.00
1109.39	855.00
1109.62	860.00
1109.86	837.00
1110.10	853.00
1110.34	907.00
1110.57	927.00
1110.81	858.00
1111.05	862.00
1111.29	907.00
1111.53	898.00
1111.76	848.00
1112.00	883.00
1112.24	887.00
1112.48	881.00
1112.71	821.00
1112.95	845.00
1113.19	886.00
1113.43	873.00
1113.66	834.00
1113.90	866.00
1114.14	869.00
1114.38	878.00
1114.62	835.00
1114.85	876.00
1115.09	870.00
1115.33	917.00
1115.57	860.00
1115.80	853.00
1116.04	869.00
1116.28	865.00
1116.52	855.00
1116.75	860.00
1116.99	898.00
1117.23	913.00
1117.47	888.00
1117.70	904.00
1117.94	929.00
1118.18	871.00
1118.42	857.00
1118.65	887.00
1118.89	884.00
1119.13	881.00
1119.37	841.00
1119.60	864.00
1119.84	896.00
>>>>>End Processed Spectral Data<<<<<
