SpectraSuite Data File
++++++++++++++++++++++++++++++++++++
Date: Fri Dec 06 14:52:45 CET 2024
User: student
Dark Spectrum Present: No
Reference Spectrum Present: No
Number of Sampled Component Spectra: 1
Spectrometers: HR4C155
Integration Time (usec): 100000 (HR4C155)
Spectra Averaged: 1 (HR4C155)
Boxcar Smoothing: 0 (HR4C155)
Correct for Electrical Dark: No (HR4C155)
Strobe/Lamp Enabled: No (HR4C155)
Correct for Detector Non-linearity: No (HR4C155)
Correct for Stray Light: No (HR4C155)
Number of Pixels in Processed Spectrum: 3648
>>>>>Begin Processed Spectral Data<<<<<
195.39	650.00
195.66	650.00
195.93	650.00
196.20	670.00
196.46	707.00
196.73	820.00
197.00	830.00
197.27	823.00
197.54	846.00
197.81	844.00
198.08	847.00
198.35	866.00
198.61	875.00
198.88	841.00
199.15	826.00
199.42	859.00
199.69	884.00
199.96	849.00
200.23	873.00
200.49	880.00
200.76	886.00
201.03	870.00
201.30	854.00
201.57	896.00
201.84	928.00
202.11	871.00
202.38	887.00
202.64	904.00
202.91	923.00
203.18	864.00
203.45	928.00
203.72	983.00
203.99	904.00
204.25	918.00
204.52	914.00
204.79	921.00
205.06	931.00
205.33	871.00
205.60	875.00
205.87	920.00
206.13	926.00
206.40	905.00
206.67	881.00
206.94	915.00
207.21	902.00
207.48	894.00
207.75	874.00
208.01	912.00
208.28	922.00
208.55	875.00
208.82	901.00
209.09	882.00
209.36	905.00
209.62	886.00
209.89	894.00
210.16	901.00
210.43	934.00
210.70	860.00
210.97	879.00
211.23	907.00
211.50	918.00
211.77	877.00
212.04	885.00
212.31	901.00
212.58	920.00
212.84	891.00
213.11	896.00
213.38	872.00
213.65	891.00
213.92	860.00
214.18	886.00
214.45	919.00
214.72	932.00
214.99	878.00
215.26	883.00
215.53	875.00
215.79	908.00
216.06	914.00
216.33	912.00
216.60	881.00
216.87	920.00
217.13	851.00
217.40	870.00
217.67	906.00
217.94	927.00
218.21	886.00
218.48	914.00
218.74	954.00
219.01	914.00
219.28	856.00
219.55	856.00
219.82	890.00
220.08	913.00
220.35	869.00
220.62	871.00
220.89	926.00
221.16	949.00
221.42	890.00
221.69	886.00
221.96	921.00
222.23	946.00
222.50	934.00
222.76	929.00
223.03	903.00
223.30	883.00
223.57	864.00
223.84	868.00
224.10	878.00
224.37	912.00
224.64	873.00
224.91	877.00
225.18	919.00
225.44	934.00
225.71	897.00
225.98	915.00
226.25	945.00
226.51	932.00
226.78	879.00
227.05	881.00
227.32	902.00
227.59	915.00
227.85	895.00
228.12	884.00
228.39	933.00
228.66	940.00
228.92	927.00
229.19	892.00
229.46	900.00
229.73	882.00
230.00	883.00
230.26	905.00
230.53	914.00
230.80	907.00
231.07	851.00
231.33	852.00
231.60	905.00
231.87	910.00
232.14	882.00
232.41	926.00
232.67	917.00
232.94	927.00
233.21	873.00
233.48	890.00
233.74	910.00
234.01	894.00
234.28	854.00
234.55	899.00
234.81	889.00
235.08	929.00
235.35	889.00
235.62	893.00
235.88	888.00
236.15	913.00
236.42	881.00
236.69	873.00
236.95	911.00
237.22	895.00
237.49	855.00
237.76	867.00
238.02	920.00
238.29	943.00
238.56	884.00
238.83	872.00
239.09	886.00
239.36	935.00
239.63	879.00
239.90	901.00
240.16	937.00
240.43	951.00
240.70	883.00
240.97	877.00
241.23	907.00
241.50	919.00
241.77	894.00
242.04	883.00
242.30	873.00
242.57	894.00
242.84	863.00
243.11	876.00
243.37	867.00
243.64	931.00
243.91	884.00
244.18	866.00
244.44	873.00
244.71	884.00
244.98	882.00
245.24	886.00
245.51	896.00
245.78	925.00
246.05	873.00
246.31	857.00
246.58	928.00
246.85	914.00
247.12	884.00
247.38	906.00
247.65	911.00
247.92	930.00
248.18	882.00
248.45	883.00
248.72	901.00
248.99	910.00
249.25	852.00
249.52	890.00
249.79	903.00
250.05	900.00
250.32	889.00
250.59	877.00
250.86	882.00
251.12	873.00
251.39	859.00
251.66	893.00
251.92	924.00
252.19	923.00
252.46	879.00
252.73	899.00
252.99	915.00
253.26	931.00
253.53	867.00
253.79	882.00
254.06	912.00
254.33	877.00
254.60	857.00
254.86	876.00
255.13	920.00
255.40	931.00
255.66	880.00
255.93	902.00
256.20	902.00
256.46	905.00
256.73	874.00
257.00	888.00
257.26	895.00
257.53	903.00
257.80	892.00
258.07	904.00
258.33	949.00
258.60	935.00
258.87	881.00
259.13	878.00
259.40	877.00
259.67	929.00
259.93	887.00
260.20	900.00
260.47	926.00
260.73	892.00
261.00	869.00
261.27	891.00
261.53	931.00
261.80	904.00
262.07	872.00
262.34	879.00
262.60	857.00
262.87	888.00
263.14	867.00
263.40	915.00
263.67	901.00
263.94	888.00
264.20	869.00
264.47	845.00
264.74	866.00
265.00	886.00
265.27	845.00
265.54	875.00
265.80	907.00
266.07	912.00
266.34	873.00
266.60	884.00
266.87	894.00
267.14	900.00
267.40	868.00
267.67	872.00
267.94	903.00
268.20	893.00
268.47	865.00
268.74	875.00
269.00	898.00
269.27	888.00
269.54	848.00
269.80	867.00
270.07	916.00
270.33	887.00
270.60	886.00
270.87	883.00
271.13	874.00
271.40	894.00
271.67	853.00
271.93	858.00
272.20	901.00
272.47	874.00
272.73	849.00
273.00	878.00
273.27	897.00
273.53	929.00
273.80	879.00
274.07	860.00
274.33	873.00
274.60	897.00
274.86	860.00
275.13	887.00
275.40	884.00
275.66	934.00
275.93	867.00
276.20	854.00
276.46	887.00
276.73	891.00
277.00	868.00
277.26	893.00
277.53	906.00
277.79	900.00
278.06	880.00
278.33	915.00
278.59	906.00
278.86	897.00
279.13	881.00
279.39	891.00
279.66	913.00
279.93	924.00
280.19	874.00
280.46	883.00
280.72	886.00
280.99	923.00
281.26	871.00
281.52	870.00
281.79	910.00
282.05	899.00
282.32	879.00
282.59	884.00
282.85	935.00
283.12	917.00
283.39	868.00
283.65	894.00
283.92	905.00
284.18	910.00
284.45	879.00
284.72	896.00
284.98	888.00
285.25	875.00
285.51	900.00
285.78	888.00
286.05	878.00
286.31	883.00
286.58	870.00
286.84	874.00
287.11	868.00
287.38	897.00
287.64	892.00
287.91	876.00
288.17	898.00
288.44	901.00
288.71	838.00
288.97	878.00
289.24	908.00
289.50	883.00
289.77	900.00
290.04	864.00
290.30	878.00
290.57	916.00
290.83	853.00
291.10	872.00
291.37	887.00
291.63	883.00
291.90	894.00
292.16	889.00
292.43	893.00
292.70	895.00
292.96	861.00
293.23	859.00
293.49	882.00
293.76	913.00
294.02	869.00
294.29	885.00
294.56	921.00
294.82	898.00
295.09	865.00
295.35	865.00
295.62	917.00
295.89	901.00
296.15	853.00
296.42	870.00
296.68	899.00
296.95	889.00
297.21	897.00
297.48	880.00
297.75	909.00
298.01	938.00
298.28	877.00
298.54	915.00
298.81	900.00
299.07	899.00
299.34	834.00
299.61	875.00
299.87	907.00
300.14	887.00
300.40	904.00
300.67	882.00
300.93	908.00
301.20	948.00
301.46	882.00
301.73	886.00
302.00	903.00
302.26	892.00
302.53	872.00
302.79	859.00
303.06	906.00
303.32	943.00
303.59	858.00
303.85	850.00
304.12	880.00
304.39	898.00
304.65	902.00
304.92	893.00
305.18	898.00
305.45	888.00
305.71	888.00
305.98	909.00
306.24	900.00
306.51	893.00
306.77	867.00
307.04	877.00
307.31	904.00
307.57	916.00
307.84	841.00
308.10	876.00
308.37	868.00
308.63	874.00
308.90	875.00
309.16	875.00
309.43	905.00
309.69	880.00
309.96	873.00
310.22	878.00
310.49	887.00
310.76	902.00
311.02	855.00
311.29	882.00
311.55	887.00
311.82	902.00
312.08	892.00
312.35	880.00
312.61	917.00
312.88	926.00
313.14	859.00
313.41	865.00
313.67	853.00
313.94	892.00
314.20	869.00
314.47	904.00
314.73	883.00
315.00	881.00
315.26	870.00
315.53	912.00
315.79	913.00
316.06	914.00
316.32	877.00
316.59	875.00
316.85	895.00
317.12	887.00
317.39	830.00
317.65	864.00
317.92	882.00
318.18	894.00
318.45	867.00
318.71	919.00
318.98	936.00
319.24	907.00
319.51	890.00
319.77	885.00
320.04	894.00
320.30	878.00
320.57	857.00
320.83	867.00
321.10	865.00
321.36	880.00
321.63	855.00
321.89	854.00
322.16	890.00
322.42	889.00
322.69	878.00
322.95	873.00
323.22	913.00
323.48	916.00
323.75	879.00
324.01	879.00
324.28	899.00
324.54	893.00
324.80	878.00
325.07	889.00
325.33	899.00
325.60	904.00
325.86	858.00
326.13	876.00
326.39	877.00
326.66	887.00
326.92	846.00
327.19	885.00
327.45	934.00
327.72	926.00
327.98	858.00
328.25	853.00
328.51	915.00
328.78	897.00
329.04	863.00
329.31	897.00
329.57	900.00
329.84	870.00
330.10	863.00
330.37	872.00
330.63	920.00
330.89	938.00
331.16	870.00
331.42	874.00
331.69	918.00
331.95	889.00
332.22	885.00
332.48	926.00
332.75	909.00
333.01	868.00
333.28	850.00
333.54	867.00
333.81	898.00
334.07	901.00
334.34	887.00
334.60	903.00
334.86	953.00
335.13	930.00
335.39	892.00
335.66	892.00
335.92	925.00
336.19	897.00
336.45	834.00
336.72	858.00
336.98	869.00
337.24	894.00
337.51	865.00
337.77	849.00
338.04	887.00
338.30	898.00
338.57	867.00
338.83	876.00
339.10	898.00
339.36	906.00
339.63	877.00
339.89	858.00
340.15	882.00
340.42	921.00
340.68	918.00
340.95	887.00
341.21	894.00
341.48	897.00
341.74	853.00
342.00	851.00
342.27	893.00
342.53	887.00
342.80	868.00
343.06	883.00
343.33	890.00
343.59	913.00
343.85	869.00
344.12	878.00
344.38	930.00
344.65	914.00
344.91	855.00
345.18	872.00
345.44	880.00
345.70	881.00
345.97	833.00
346.23	861.00
346.50	888.00
346.76	883.00
347.03	894.00
347.29	887.00
347.55	882.00
347.82	898.00
348.08	875.00
348.35	866.00
348.61	935.00
348.87	904.00
349.14	862.00
349.40	861.00
349.67	894.00
349.93	880.00
350.20	877.00
350.46	878.00
350.72	907.00
350.99	879.00
351.25	878.00
351.52	866.00
351.78	888.00
352.04	914.00
352.31	890.00
352.57	887.00
352.84	871.00
353.10	885.00
353.36	876.00
353.63	866.00
353.89	877.00
354.16	885.00
354.42	867.00
354.68	875.00
354.95	925.00
355.21	920.00
355.48	865.00
355.74	895.00
356.00	915.00
356.27	940.00
356.53	886.00
356.80	858.00
357.06	874.00
357.32	892.00
357.59	895.00
357.85	883.00
358.11	938.00
358.38	911.00
358.64	865.00
358.91	873.00
359.17	887.00
359.43	899.00
359.70	883.00
359.96	893.00
360.22	911.00
360.49	894.00
360.75	894.00
361.02	867.00
361.28	859.00
361.54	873.00
361.81	847.00
362.07	876.00
362.33	880.00
362.60	884.00
362.86	846.00
363.13	887.00
363.39	911.00
363.65	902.00
363.92	812.00
364.18	825.00
364.44	876.00
364.71	885.00
364.97	857.00
365.24	861.00
365.50	892.00
365.76	896.00
366.03	873.00
366.29	887.00
366.55	918.00
366.82	889.00
367.08	851.00
367.34	879.00
367.61	893.00
367.87	898.00
368.13	861.00
368.40	878.00
368.66	941.00
368.93	913.00
369.19	846.00
369.45	875.00
369.72	908.00
369.98	875.00
370.24	848.00
370.51	863.00
370.77	886.00
371.03	889.00
371.30	868.00
371.56	892.00
371.82	900.00
372.09	908.00
372.35	878.00
372.61	891.00
372.88	896.00
373.14	883.00
373.40	865.00
373.67	886.00
373.93	892.00
374.19	912.00
374.46	869.00
374.72	867.00
374.98	878.00
375.25	894.00
375.51	875.00
375.77	898.00
376.04	906.00
376.30	893.00
376.56	856.00
376.83	879.00
377.09	913.00
377.35	899.00
377.62	882.00
377.88	863.00
378.14	869.00
378.41	909.00
378.67	882.00
378.93	872.00
379.20	909.00
379.46	894.00
379.72	851.00
379.99	864.00
380.25	872.00
380.51	866.00
380.77	860.00
381.04	885.00
381.30	913.00
381.56	919.00
381.83	885.00
382.09	856.00
382.35	875.00
382.62	896.00
382.88	883.00
383.14	878.00
383.41	876.00
383.67	864.00
383.93	881.00
384.20	873.00
384.46	896.00
384.72	915.00
384.98	851.00
385.25	879.00
385.51	906.00
385.77	887.00
386.04	844.00
386.30	857.00
386.56	901.00
386.82	930.00
387.09	878.00
387.35	888.00
387.61	952.00
387.88	920.00
388.14	896.00
388.40	894.00
388.67	880.00
388.93	884.00
389.19	876.00
389.45	866.00
389.72	886.00
389.98	903.00
390.24	863.00
390.51	855.00
390.77	894.00
391.03	914.00
391.29	868.00
391.56	888.00
391.82	901.00
392.08	925.00
392.35	875.00
392.61	878.00
392.87	894.00
393.13	902.00
393.40	876.00
393.66	885.00
393.92	890.00
394.18	886.00
394.45	854.00
394.71	855.00
394.97	876.00
395.24	861.00
395.50	857.00
395.76	891.00
396.02	907.00
396.29	896.00
396.55	846.00
396.81	825.00
397.07	869.00
397.34	863.00
397.60	850.00
397.86	851.00
398.12	885.00
398.39	919.00
398.65	859.00
398.91	878.00
399.17	868.00
399.44	841.00
399.70	822.00
399.96	851.00
400.22	872.00
400.49	902.00
400.75	886.00
401.01	859.00
401.27	876.00
401.54	901.00
401.80	863.00
402.06	850.00
402.32	903.00
402.59	874.00
402.85	849.00
403.11	863.00
403.37	877.00
403.64	916.00
403.90	874.00
404.16	877.00
404.42	888.00
404.69	883.00
404.95	872.00
405.21	838.00
405.47	873.00
405.74	905.00
406.00	866.00
406.26	849.00
406.52	880.00
406.79	908.00
407.05	870.00
407.31	871.00
407.57	882.00
407.83	896.00
408.10	834.00
408.36	852.00
408.62	878.00
408.88	897.00
409.15	874.00
409.41	850.00
409.67	871.00
409.93	895.00
410.20	879.00
410.46	880.00
410.72	871.00
410.98	884.00
411.24	870.00
411.51	879.00
411.77	886.00
412.03	873.00
412.29	879.00
412.55	889.00
412.82	889.00
413.08	900.00
413.34	888.00
413.60	889.00
413.87	885.00
414.13	897.00
414.39	845.00
414.65	870.00
414.91	896.00
415.18	898.00
415.44	850.00
415.70	862.00
415.96	883.00
416.22	894.00
416.49	859.00
416.75	866.00
417.01	866.00
417.27	881.00
417.53	867.00
417.80	862.00
418.06	892.00
418.32	892.00
418.58	848.00
418.84	856.00
419.11	893.00
419.37	891.00
419.63	863.00
419.89	873.00
420.15	885.00
420.42	874.00
420.68	851.00
420.94	867.00
421.20	893.00
421.46	899.00
421.72	876.00
421.99	879.00
422.25	889.00
422.51	895.00
422.77	885.00
423.03	887.00
423.30	891.00
423.56	909.00
423.82	892.00
424.08	906.00
424.34	888.00
424.60	893.00
424.87	863.00
425.13	854.00
425.39	851.00
425.65	881.00
425.91	871.00
426.18	881.00
426.44	897.00
426.70	874.00
426.96	835.00
427.22	836.00
427.48	867.00
427.75	878.00
428.01	843.00
428.27	867.00
428.53	901.00
428.79	870.00
429.05	855.00
429.32	864.00
429.58	900.00
429.84	862.00
430.10	885.00
430.36	877.00
430.62	913.00
430.88	898.00
431.15	879.00
431.41	881.00
431.67	885.00
431.93	871.00
432.19	840.00
432.45	888.00
432.72	894.00
432.98	886.00
433.24	907.00
433.50	976.00
433.76	868.00
434.02	867.00
434.28	845.00
434.55	866.00
434.81	897.00
435.07	893.00
435.33	845.00
435.59	863.00
435.85	868.00
436.11	875.00
436.38	855.00
436.64	858.00
436.90	865.00
437.16	863.00
437.42	843.00
437.68	861.00
437.94	908.00
438.21	904.00
438.47	882.00
438.73	877.00
438.99	878.00
439.25	890.00
439.51	861.00
439.77	872.00
440.03	876.00
440.30	891.00
440.56	871.00
440.82	893.00
441.08	906.00
441.34	904.00
441.60	850.00
441.86	883.00
442.12	900.00
442.39	899.00
442.65	870.00
442.91	882.00
443.17	876.00
443.43	883.00
443.69	869.00
443.95	866.00
444.21	873.00
444.47	893.00
444.74	847.00
445.00	866.00
445.26	876.00
445.52	892.00
445.78	859.00
446.04	853.00
446.30	912.00
446.56	897.00
446.82	846.00
447.09	856.00
447.35	892.00
447.61	894.00
447.87	860.00
448.13	872.00
448.39	908.00
448.65	899.00
448.91	853.00
449.17	854.00
449.43	855.00
449.70	874.00
449.96	845.00
450.22	849.00
450.48	871.00
450.74	901.00
451.00	873.00
451.26	867.00
451.52	880.00
451.78	877.00
452.04	850.00
452.31	885.00
452.57	907.00
452.83	874.00
453.09	859.00
453.35	878.00
453.61	881.00
453.87	888.00
454.13	883.00
454.39	882.00
454.65	947.00
454.91	930.00
455.17	853.00
455.44	862.00
455.70	887.00
455.96	878.00
456.22	846.00
456.48	856.00
456.74	886.00
457.00	858.00
457.26	828.00
457.52	875.00
457.78	879.00
458.04	886.00
458.30	838.00
458.56	874.00
458.82	878.00
459.09	858.00
459.35	841.00
459.61	860.00
459.87	888.00
460.13	907.00
460.39	868.00
460.65	838.00
460.91	896.00
461.17	881.00
461.43	825.00
461.69	842.00
461.95	902.00
462.21	903.00
462.47	868.00
462.73	898.00
462.99	916.00
463.26	893.00
463.52	845.00
463.78	838.00
464.04	845.00
464.30	883.00
464.56	855.00
464.82	860.00
465.08	921.00
465.34	922.00
465.60	872.00
465.86	869.00
466.12	894.00
466.38	871.00
466.64	852.00
466.90	882.00
467.16	887.00
467.42	900.00
467.68	863.00
467.94	877.00
468.20	911.00
468.46	884.00
468.72	863.00
468.98	875.00
469.25	900.00
469.51	860.00
469.77	882.00
470.03	884.00
470.29	873.00
470.55	888.00
470.81	862.00
471.07	879.00
471.33	904.00
471.59	894.00
471.85	866.00
472.11	871.00
472.37	885.00
472.63	879.00
472.89	865.00
473.15	861.00
473.41	882.00
473.67	868.00
473.93	835.00
474.19	849.00
474.45	853.00
474.71	886.00
474.97	877.00
475.23	866.00
475.49	866.00
475.75	869.00
476.01	844.00
476.27	862.00
476.53	904.00
476.79	904.00
477.05	854.00
477.31	851.00
477.57	874.00
477.83	872.00
478.09	836.00
478.35	871.00
478.61	916.00
478.87	888.00
479.13	837.00
479.39	883.00
479.65	916.00
479.91	905.00
480.17	853.00
480.43	882.00
480.69	871.00
480.95	894.00
481.21	868.00
481.47	859.00
481.73	878.00
481.99	860.00
482.25	857.00
482.51	844.00
482.77	894.00
483.03	892.00
483.29	865.00
483.55	864.00
483.81	892.00
484.07	884.00
484.33	843.00
484.59	860.00
484.85	899.00
485.11	901.00
485.37	865.00
485.63	859.00
485.89	861.00
486.15	872.00
486.41	843.00
486.67	857.00
486.93	885.00
487.19	866.00
487.45	842.00
487.71	858.00
487.97	901.00
488.23	889.00
488.49	838.00
488.75	849.00
489.01	891.00
489.27	902.00
489.53	855.00
489.79	852.00
490.05	874.00
490.31	911.00
490.57	885.00
490.83	927.00
491.08	883.00
491.34	865.00
491.60	847.00
491.86	879.00
492.12	929.00
492.38	908.00
492.64	832.00
492.90	838.00
493.16	887.00
493.42	863.00
493.68	842.00
493.94	874.00
494.20	865.00
494.46	885.00
494.72	845.00
494.98	865.00
495.24	869.00
495.50	896.00
495.76	893.00
496.02	901.00
496.28	903.00
496.54	904.00
496.80	866.00
497.05	835.00
497.31	889.00
497.57	882.00
497.83	852.00
498.09	875.00
498.35	901.00
498.61	910.00
498.87	871.00
499.13	854.00
499.39	873.00
499.65	889.00
499.91	872.00
500.17	865.00
500.43	940.00
500.69	957.00
500.95	860.00
501.20	876.00
501.46	866.00
501.72	884.00
501.98	892.00
502.24	876.00
502.50	885.00
502.76	872.00
503.02	868.00
503.28	869.00
503.54	917.00
503.80	916.00
504.06	877.00
504.32	894.00
504.58	882.00
504.83	856.00
505.09	827.00
505.35	868.00
505.61	874.00
505.87	897.00
506.13	882.00
506.39	862.00
506.65	897.00
506.91	929.00
507.17	872.00
507.43	862.00
507.68	877.00
507.94	917.00
508.20	876.00
508.46	849.00
508.72	896.00
508.98	906.00
509.24	841.00
509.50	882.00
509.76	886.00
510.02	887.00
510.28	849.00
510.53	866.00
510.79	888.00
511.05	886.00
511.31	871.00
511.57	873.00
511.83	903.00
512.09	915.00
512.35	859.00
512.61	867.00
512.87	897.00
513.12	907.00
513.38	835.00
513.64	876.00
513.90	911.00
514.16	904.00
514.42	866.00
514.68	875.00
514.94	895.00
515.20	889.00
515.45	850.00
515.71	872.00
515.97	902.00
516.23	872.00
516.49	853.00
516.75	855.00
517.01	881.00
517.27	871.00
517.53	865.00
517.78	859.00
518.04	894.00
518.30	864.00
518.56	854.00
518.82	880.00
519.08	914.00
519.34	878.00
519.60	858.00
519.85	860.00
520.11	878.00
520.37	882.00
520.63	870.00
520.89	884.00
521.15	877.00
521.41	873.00
521.66	836.00
521.92	861.00
522.18	908.00
522.44	904.00
522.70	856.00
522.96	838.00
523.22	880.00
523.48	869.00
523.73	852.00
523.99	854.00
524.25	922.00
524.51	901.00
524.77	860.00
525.03	850.00
525.29	890.00
525.54	888.00
525.80	848.00
526.06	863.00
526.32	872.00
526.58	878.00
526.84	860.00
527.09	847.00
527.35	856.00
527.61	875.00
527.87	861.00
528.13	881.00
528.39	877.00
528.65	867.00
528.90	844.00
529.16	848.00
529.42	852.00
529.68	863.00
529.94	856.00
530.20	871.00
530.45	867.00
530.71	897.00
530.97	836.00
531.23	869.00
531.49	906.00
531.75	889.00
532.00	865.00
532.26	849.00
532.52	894.00
532.78	872.00
533.04	854.00
533.30	862.00
533.55	881.00
533.81	897.00
534.07	814.00
534.33	861.00
534.59	904.00
534.85	904.00
535.10	856.00
535.36	841.00
535.62	870.00
535.88	869.00
536.14	845.00
536.39	857.00
536.65	887.00
536.91	893.00
537.17	854.00
537.43	861.00
537.69	918.00
537.94	898.00
538.20	843.00
538.46	861.00
538.72	863.00
538.98	869.00
539.23	850.00
539.49	839.00
539.75	892.00
540.01	892.00
540.27	846.00
540.52	875.00
540.78	879.00
541.04	891.00
541.30	834.00
541.56	841.00
541.81	937.00
542.07	953.00
542.33	863.00
542.59	858.00
542.85	883.00
543.10	891.00
543.36	854.00
543.62	887.00
543.88	880.00
544.14	874.00
544.39	855.00
544.65	860.00
544.91	899.00
545.17	877.00
545.43	857.00
545.68	858.00
545.94	887.00
546.20	893.00
546.46	846.00
546.71	863.00
546.97	894.00
547.23	885.00
547.49	858.00
547.75	847.00
548.00	877.00
548.26	915.00
548.52	866.00
548.78	858.00
549.03	868.00
549.29	878.00
549.55	842.00
549.81	860.00
550.07	874.00
550.32	882.00
550.58	840.00
550.84	881.00
551.10	882.00
551.35	874.00
551.61	850.00
551.87	866.00
552.13	884.00
552.39	857.00
552.64	838.00
552.90	859.00
553.16	869.00
553.42	872.00
553.67	831.00
553.93	857.00
554.19	885.00
554.45	914.00
554.70	860.00
554.96	849.00
555.22	881.00
555.48	881.00
555.73	853.00
555.99	854.00
556.25	889.00
556.51	876.00
556.76	834.00
557.02	869.00
557.28	901.00
557.54	886.00
557.79	853.00
558.05	889.00
558.31	864.00
558.57	893.00
558.82	853.00
559.08	840.00
559.34	826.00
559.60	880.00
559.85	856.00
560.11	875.00
560.37	872.00
560.63	863.00
560.88	852.00
561.14	866.00
561.40	905.00
561.66	854.00
561.91	865.00
562.17	874.00
562.43	889.00
562.68	883.00
562.94	873.00
563.20	893.00
563.46	881.00
563.71	883.00
563.97	847.00
564.23	884.00
564.49	882.00
564.74	867.00
565.00	828.00
565.26	859.00
565.51	882.00
565.77	856.00
566.03	832.00
566.29	871.00
566.54	859.00
566.80	859.00
567.06	853.00
567.31	890.00
567.57	909.00
567.83	872.00
568.09	882.00
568.34	863.00
568.60	859.00
568.86	899.00
569.11	886.00
569.37	863.00
569.63	871.00
569.89	898.00
570.14	837.00
570.40	858.00
570.66	874.00
570.91	872.00
571.17	860.00
571.43	874.00
571.69	905.00
571.94	915.00
572.20	856.00
572.46	891.00
572.71	905.00
572.97	886.00
573.23	862.00
573.48	872.00
573.74	883.00
574.00	885.00
574.26	852.00
574.51	851.00
574.77	902.00
575.03	879.00
575.28	851.00
575.54	838.00
575.80	849.00
576.05	892.00
576.31	845.00
576.57	841.00
576.82	898.00
577.08	887.00
577.34	859.00
577.59	867.00
577.85	889.00
578.11	865.00
578.37	838.00
578.62	841.00
578.88	894.00
579.14	898.00
579.39	853.00
579.65	873.00
579.91	862.00
580.16	874.00
580.42	859.00
580.68	864.00
580.93	888.00
581.19	862.00
581.45	840.00
581.70	871.00
581.96	886.00
582.22	891.00
582.47	877.00
582.73	877.00
582.99	892.00
583.24	898.00
583.50	850.00
583.76	852.00
584.01	886.00
584.27	900.00
584.53	870.00
584.78	861.00
585.04	859.00
585.30	892.00
585.55	890.00
585.81	853.00
586.07	902.00
586.32	901.00
586.58	867.00
586.83	863.00
587.09	883.00
587.35	885.00
587.60	851.00
587.86	859.00
588.12	859.00
588.37	885.00
588.63	855.00
588.89	852.00
589.14	881.00
589.40	893.00
589.66	851.00
589.91	876.00
590.17	896.00
590.43	844.00
590.68	830.00
590.94	861.00
591.19	878.00
591.45	881.00
591.71	856.00
591.96	865.00
592.22	876.00
592.48	904.00
592.73	842.00
592.99	857.00
593.25	888.00
593.50	901.00
593.76	863.00
594.01	865.00
594.27	888.00
594.53	888.00
594.78	850.00
595.04	870.00
595.30	878.00
595.55	881.00
595.81	856.00
596.06	892.00
596.32	909.00
596.58	898.00
596.83	854.00
597.09	877.00
597.35	898.00
597.60	880.00
597.86	860.00
598.11	877.00
598.37	917.00
598.63	905.00
598.88	858.00
599.14	867.00
599.39	908.00
599.65	903.00
599.91	838.00
600.16	867.00
600.42	881.00
600.67	916.00
600.93	858.00
601.19	893.00
601.44	946.00
601.70	913.00
601.95	876.00
602.21	883.00
602.47	868.00
602.72	893.00
602.98	875.00
603.23	880.00
603.49	907.00
603.75	914.00
604.00	874.00
604.26	877.00
604.51	872.00
604.77	915.00
605.03	872.00
605.28	886.00
605.54	933.00
605.79	943.00
606.05	852.00
606.31	862.00
606.56	908.00
606.82	933.00
607.07	880.00
607.33	908.00
607.59	932.00
607.84	919.00
608.10	883.00
608.35	892.00
608.61	918.00
608.86	926.00
609.12	902.00
609.38	925.00
609.63	943.00
609.89	925.00
610.14	854.00
610.40	888.00
610.65	931.00
610.91	918.00
611.17	890.00
611.42	898.00
611.68	940.00
611.93	956.00
612.19	937.00
612.44	948.00
612.70	954.00
612.96	915.00
613.21	905.00
613.47	908.00
613.72	932.00
613.98	961.00
614.23	926.00
614.49	949.00
614.75	963.00
615.00	946.00
615.26	935.00
615.51	931.00
615.77	974.00
616.02	1006.00
616.28	968.00
616.53	978.00
616.79	974.00
617.05	960.00
617.30	952.00
617.56	984.00
617.81	1005.00
618.07	1018.00
618.32	981.00
618.58	994.00
618.83	1022.00
619.09	1015.00
619.34	972.00
619.60	1012.00
619.86	1046.00
620.11	1047.00
620.37	1014.00
620.62	1007.00
620.88	1041.00
621.13	1036.00
621.39	1034.00
621.64	1061.00
621.90	1074.00
622.15	1043.00
622.41	1056.00
622.66	1076.00
622.92	1103.00
623.18	1118.00
623.43	1082.00
623.69	1096.00
623.94	1087.00
624.20	1122.00
624.45	1133.00
624.71	1178.00
624.96	1195.00
625.22	1259.00
625.47	1202.00
625.73	1172.00
625.98	1172.00
626.24	1173.00
626.49	1162.00
626.75	1239.00
627.00	1328.00
627.26	1344.00
627.51	1309.00
627.77	1357.00
628.02	1349.00
628.28	1332.00
628.53	1326.00
628.79	1457.00
629.05	1507.00
629.30	1506.00
629.56	1492.00
629.81	1516.00
630.07	1532.00
630.32	1569.00
630.58	1577.00
630.83	1583.00
631.09	1565.00
631.34	1610.00
631.60	1625.00
631.85	1722.00
632.11	1807.00
632.36	1709.00
632.62	1695.00
632.87	1786.00
633.13	1872.00
633.38	1910.00
633.64	1850.00
633.89	1889.00
634.15	1918.00
634.40	2015.00
634.66	2079.00
634.91	2178.00
635.17	2270.00
635.42	2325.00
635.68	2343.00
635.93	2337.00
636.18	2389.00
636.44	2351.00
636.69	2242.00
636.95	2251.00
637.20	2308.00
637.46	2436.00
637.71	2554.00
637.97	2613.00
638.22	2596.00
638.48	2379.00
638.73	2302.00
638.99	2419.00
639.24	2524.00
639.50	2421.00
639.75	2361.00
640.01	2375.00
640.26	2544.00
640.52	2532.00
640.77	2252.00
641.03	2090.00
641.28	2140.00
641.54	2284.00
641.79	2380.00
642.04	2312.00
642.30	2277.00
642.55	2142.00
642.81	2059.00
643.06	2106.00
643.32	2179.00
643.57	2060.00
643.83	1955.00
644.08	1904.00
644.34	1864.00
644.59	1872.00
644.85	1875.00
645.10	1930.00
645.35	1886.00
645.61	1746.00
645.86	1649.00
646.12	1588.00
646.37	1625.00
646.63	1560.00
646.88	1458.00
647.14	1408.00
647.39	1395.00
647.65	1399.00
647.90	1357.00
648.15	1350.00
648.41	1393.00
648.66	1398.00
648.92	1286.00
649.17	1236.00
649.43	1256.00
649.68	1252.00
649.94	1223.00
650.19	1183.00
650.44	1198.00
650.70	1189.00
650.95	1133.00
651.21	1124.00
651.46	1119.00
651.72	1119.00
651.97	1106.00
652.23	1078.00
652.48	1089.00
652.73	1093.00
652.99	1035.00
653.24	1040.00
653.50	1046.00
653.75	1024.00
654.01	986.00
654.26	1015.00
654.51	1019.00
654.77	1023.00
655.02	987.00
655.28	971.00
655.53	984.00
655.79	989.00
656.04	969.00
656.29	979.00
656.55	966.00
656.80	983.00
657.06	925.00
657.31	932.00
657.56	952.00
657.82	962.00
658.07	913.00
658.33	921.00
658.58	939.00
658.84	963.00
659.09	919.00
659.34	918.00
659.60	927.00
659.85	917.00
660.11	904.00
660.36	909.00
660.61	915.00
660.87	909.00
661.12	886.00
661.38	902.00
661.63	936.00
661.88	930.00
662.14	917.00
662.39	900.00
662.65	923.00
662.90	946.00
663.15	880.00
663.41	900.00
663.66	937.00
663.92	936.00
664.17	883.00
664.42	899.00
664.68	912.00
664.93	893.00
665.19	870.00
665.44	862.00
665.69	871.00
665.95	883.00
666.20	851.00
666.45	869.00
666.71	884.00
666.96	905.00
667.22	856.00
667.47	871.00
667.72	874.00
667.98	878.00
668.23	861.00
668.49	902.00
668.74	917.00
668.99	908.00
669.25	863.00
669.50	847.00
669.75	879.00
670.01	875.00
670.26	832.00
670.52	858.00
670.77	890.00
671.02	868.00
671.28	846.00
671.53	885.00
671.78	894.00
672.04	888.00
672.29	860.00
672.54	850.00
672.80	882.00
673.05	865.00
673.31	836.00
673.56	897.00
673.81	939.00
674.07	915.00
674.32	867.00
674.57	867.00
674.83	876.00
675.08	877.00
675.33	866.00
675.59	867.00
675.84	893.00
676.09	885.00
676.35	860.00
676.60	886.00
676.86	888.00
677.11	902.00
677.36	859.00
677.62	875.00
677.87	909.00
678.12	927.00
678.38	837.00
678.63	857.00
678.88	899.00
679.14	905.00
679.39	842.00
679.64	869.00
679.90	860.00
680.15	877.00
680.40	890.00
680.66	848.00
680.91	872.00
681.16	866.00
681.42	847.00
681.67	859.00
681.92	876.00
682.18	922.00
682.43	862.00
682.68	852.00
682.94	872.00
683.19	861.00
683.44	851.00
683.70	889.00
683.95	888.00
684.20	882.00
684.46	861.00
684.71	891.00
684.96	873.00
685.22	883.00
685.47	871.00
685.72	878.00
685.98	895.00
686.23	842.00
686.48	841.00
686.74	886.00
686.99	898.00
687.24	871.00
687.50	853.00
687.75	852.00
688.00	870.00
688.25	882.00
688.51	855.00
688.76	889.00
689.01	856.00
689.27	863.00
689.52	828.00
689.77	864.00
690.03	854.00
690.28	869.00
690.53	854.00
690.79	876.00
691.04	882.00
691.29	884.00
691.54	833.00
691.80	855.00
692.05	868.00
692.30	893.00
692.56	866.00
692.81	877.00
693.06	862.00
693.32	863.00
693.57	844.00
693.82	867.00
694.07	883.00
694.33	872.00
694.58	848.00
694.83	888.00
695.09	872.00
695.34	902.00
695.59	877.00
695.84	863.00
696.10	884.00
696.35	886.00
696.60	835.00
696.86	845.00
697.11	869.00
697.36	887.00
697.61	846.00
697.87	874.00
698.12	873.00
698.37	854.00
698.63	852.00
698.88	849.00
699.13	883.00
699.38	880.00
699.64	833.00
699.89	858.00
700.14	849.00
700.39	856.00
700.65	852.00
700.90	871.00
701.15	875.00
701.40	902.00
701.66	849.00
701.91	858.00
702.16	857.00
702.42	872.00
702.67	830.00
702.92	839.00
703.17	866.00
703.43	879.00
703.68	863.00
703.93	898.00
704.18	924.00
704.44	878.00
704.69	848.00
704.94	889.00
705.19	872.00
705.45	886.00
705.70	871.00
705.95	860.00
706.20	868.00
706.46	893.00
706.71	859.00
706.96	854.00
707.21	879.00
707.47	868.00
707.72	857.00
707.97	868.00
708.22	876.00
708.48	901.00
708.73	860.00
708.98	850.00
709.23	871.00
709.49	882.00
709.74	854.00
709.99	864.00
710.24	872.00
710.50	891.00
710.75	875.00
711.00	876.00
711.25	869.00
711.50	861.00
711.76	839.00
712.01	845.00
712.26	854.00
712.51	865.00
712.77	858.00
713.02	884.00
713.27	866.00
713.52	866.00
713.78	860.00
714.03	864.00
714.28	854.00
714.53	873.00
714.78	858.00
715.04	894.00
715.29	888.00
715.54	875.00
715.79	834.00
716.05	876.00
716.30	874.00
716.55	883.00
716.80	857.00
717.05	859.00
717.31	874.00
717.56	878.00
717.81	865.00
718.06	846.00
718.31	856.00
718.57	871.00
718.82	857.00
719.07	893.00
719.32	870.00
719.57	881.00
719.83	848.00
720.08	892.00
720.33	862.00
720.58	845.00
720.83	818.00
721.09	876.00
721.34	875.00
721.59	882.00
721.84	840.00
722.09	845.00
722.35	866.00
722.60	863.00
722.85	835.00
723.10	854.00
723.35	836.00
723.61	858.00
723.86	859.00
724.11	889.00
724.36	894.00
724.61	873.00
724.87	859.00
725.12	857.00
725.37	849.00
725.62	848.00
725.87	833.00
726.12	842.00
726.38	846.00
726.63	870.00
726.88	839.00
727.13	873.00
727.38	866.00
727.64	868.00
727.89	847.00
728.14	841.00
728.39	828.00
728.64	879.00
728.89	869.00
729.15	882.00
729.40	895.00
729.65	902.00
729.90	832.00
730.15	866.00
730.40	877.00
730.66	874.00
730.91	846.00
731.16	855.00
731.41	879.00
731.66	875.00
731.91	856.00
732.17	883.00
732.42	894.00
732.67	872.00
732.92	854.00
733.17	863.00
733.42	870.00
733.68	874.00
733.93	838.00
734.18	872.00
734.43	847.00
734.68	862.00
734.93	855.00
735.18	871.00
735.44	877.00
735.69	875.00
735.94	833.00
736.19	862.00
736.44	839.00
736.69	897.00
736.95	853.00
737.20	875.00
737.45	873.00
737.70	868.00
737.95	862.00
738.20	875.00
738.45	874.00
738.70	887.00
738.96	867.00
739.21	869.00
739.46	867.00
739.71	890.00
739.96	852.00
740.21	890.00
740.46	943.00
740.72	929.00
740.97	853.00
741.22	881.00
741.47	864.00
741.72	877.00
741.97	858.00
742.22	861.00
742.47	868.00
742.73	874.00
742.98	852.00
743.23	859.00
743.48	859.00
743.73	880.00
743.98	853.00
744.23	867.00
744.48	875.00
744.74	857.00
744.99	841.00
745.24	877.00
745.49	869.00
745.74	888.00
745.99	844.00
746.24	871.00
746.49	848.00
746.74	857.00
747.00	864.00
747.25	866.00
747.50	850.00
747.75	844.00
748.00	826.00
748.25	847.00
748.50	881.00
748.75	903.00
749.00	891.00
749.26	908.00
749.51	881.00
749.76	891.00
750.01	841.00
750.26	874.00
750.51	908.00
750.76	871.00
751.01	836.00
751.26	845.00
751.51	879.00
751.77	888.00
752.02	867.00
752.27	859.00
752.52	868.00
752.77	885.00
753.02	841.00
753.27	862.00
753.52	883.00
753.77	881.00
754.02	838.00
754.27	848.00
754.52	836.00
754.78	878.00
755.03	853.00
755.28	874.00
755.53	869.00
755.78	864.00
756.03	840.00
756.28	875.00
756.53	868.00
756.78	873.00
757.03	842.00
757.28	872.00
757.53	873.00
757.79	840.00
758.04	812.00
758.29	876.00
758.54	890.00
758.79	869.00
759.04	834.00
759.29	828.00
759.54	828.00
759.79	856.00
760.04	841.00
760.29	872.00
760.54	871.00
760.79	878.00
761.04	844.00
761.29	852.00
761.55	846.00
761.80	865.00
762.05	832.00
762.30	873.00
762.55	871.00
762.80	888.00
763.05	864.00
763.30	881.00
763.55	902.00
763.80	893.00
764.05	835.00
764.30	861.00
764.55	899.00
764.80	873.00
765.05	846.00
765.30	878.00
765.55	872.00
765.80	861.00
766.05	833.00
766.30	864.00
766.56	861.00
766.81	861.00
767.06	860.00
767.31	876.00
767.56	861.00
767.81	869.00
768.06	846.00
768.31	867.00
768.56	876.00
768.81	914.00
769.06	847.00
769.31	880.00
769.56	860.00
769.81	870.00
770.06	833.00
770.31	856.00
770.56	865.00
770.81	842.00
771.06	828.00
771.31	853.00
771.56	843.00
771.81	874.00
772.06	815.00
772.31	871.00
772.56	868.00
772.81	878.00
773.06	844.00
773.31	851.00
773.56	858.00
773.81	848.00
774.06	826.00
774.31	851.00
774.56	856.00
774.81	896.00
775.06	865.00
775.31	883.00
775.56	885.00
775.81	860.00
776.06	818.00
776.31	853.00
776.56	868.00
776.82	874.00
777.07	833.00
777.32	850.00
777.57	868.00
777.82	898.00
778.07	846.00
778.32	868.00
778.57	882.00
778.82	896.00
779.07	873.00
779.32	865.00
779.57	851.00
779.82	849.00
780.07	837.00
780.32	860.00
780.56	866.00
780.81	893.00
781.06	846.00
781.31	844.00
781.56	884.00
781.81	876.00
782.06	844.00
782.31	872.00
782.56	866.00
782.81	901.00
783.06	835.00
783.31	859.00
783.56	852.00
783.81	872.00
784.06	863.00
784.31	870.00
784.56	851.00
784.81	909.00
785.06	873.00
785.31	873.00
785.56	855.00
785.81	842.00
786.06	826.00
786.31	861.00
786.56	871.00
786.81	874.00
787.06	850.00
787.31	849.00
787.56	846.00
787.81	851.00
788.06	822.00
788.31	861.00
788.56	849.00
788.81	886.00
789.06	876.00
789.31	870.00
789.56	861.00
789.81	865.00
790.06	842.00
790.31	892.00
790.56	865.00
790.80	866.00
791.05	841.00
791.30	834.00
791.55	848.00
791.80	871.00
792.05	846.00
792.30	831.00
792.55	840.00
792.80	869.00
793.05	846.00
793.30	852.00
793.55	874.00
793.80	877.00
794.05	840.00
794.30	865.00
794.55	859.00
794.80	868.00
795.05	841.00
795.30	852.00
795.54	863.00
795.79	884.00
796.04	834.00
796.29	853.00
796.54	848.00
796.79	878.00
797.04	850.00
797.29	856.00
797.54	874.00
797.79	872.00
798.04	843.00
798.29	856.00
798.54	839.00
798.79	849.00
799.04	840.00
799.29	872.00
799.53	875.00
799.78	860.00
800.03	841.00
800.28	836.00
800.53	859.00
800.78	904.00
801.03	845.00
801.28	845.00
801.53	851.00
801.78	880.00
802.03	857.00
802.28	866.00
802.52	882.00
802.77	891.00
803.02	862.00
803.27	871.00
803.52	841.00
803.77	881.00
804.02	871.00
804.27	885.00
804.52	883.00
804.77	881.00
805.02	861.00
805.27	885.00
805.51	864.00
805.76	878.00
806.01	844.00
806.26	856.00
806.51	861.00
806.76	899.00
807.01	860.00
807.26	848.00
807.51	870.00
807.76	844.00
808.00	829.00
808.25	865.00
808.50	874.00
808.75	857.00
809.00	830.00
809.25	865.00
809.50	881.00
809.75	899.00
810.00	866.00
810.24	857.00
810.49	829.00
810.74	841.00
810.99	841.00
811.24	860.00
811.49	881.00
811.74	886.00
811.99	819.00
812.24	866.00
812.48	852.00
812.73	857.00
812.98	817.00
813.23	834.00
813.48	870.00
813.73	868.00
813.98	812.00
814.23	846.00
814.47	835.00
814.72	843.00
814.97	832.00
815.22	875.00
815.47	847.00
815.72	843.00
815.97	817.00
816.22	848.00
816.46	855.00
816.71	868.00
816.96	850.00
817.21	875.00
817.46	849.00
817.71	880.00
817.96	850.00
818.20	858.00
818.45	842.00
818.70	855.00
818.95	827.00
819.20	835.00
819.45	861.00
819.70	857.00
819.94	826.00
820.19	848.00
820.44	864.00
820.69	878.00
820.94	838.00
821.19	871.00
821.44	909.00
821.68	925.00
821.93	854.00
822.18	880.00
822.43	889.00
822.68	871.00
822.93	842.00
823.17	865.00
823.42	874.00
823.67	854.00
823.92	833.00
824.17	843.00
824.42	854.00
824.67	880.00
824.91	843.00
825.16	855.00
825.41	869.00
825.66	871.00
825.91	831.00
826.16	838.00
826.40	873.00
826.65	873.00
826.90	838.00
827.15	864.00
827.40	872.00
827.65	891.00
827.89	806.00
828.14	844.00
828.39	872.00
828.64	873.00
828.89	841.00
829.13	858.00
829.38	853.00
829.63	860.00
829.88	838.00
830.13	843.00
830.38	844.00
830.62	861.00
830.87	854.00
831.12	874.00
831.37	896.00
831.62	891.00
831.86	835.00
832.11	848.00
832.36	833.00
832.61	863.00
832.86	861.00
833.10	869.00
833.35	878.00
833.60	889.00
833.85	861.00
834.10	881.00
834.35	887.00
834.59	882.00
834.84	843.00
835.09	882.00
835.34	854.00
835.59	863.00
835.83	853.00
836.08	870.00
836.33	882.00
836.58	876.00
836.83	844.00
837.07	872.00
837.32	876.00
837.57	862.00
837.82	849.00
838.06	874.00
838.31	896.00
838.56	890.00
838.81	857.00
839.06	875.00
839.30	853.00
839.55	874.00
839.80	840.00
840.05	867.00
840.30	873.00
840.54	897.00
840.79	839.00
841.04	852.00
841.29	875.00
841.53	883.00
841.78	845.00
842.03	847.00
842.28	858.00
842.53	861.00
842.77	856.00
843.02	880.00
843.27	852.00
843.52	874.00
843.76	864.00
844.01	876.00
844.26	861.00
844.51	877.00
844.75	855.00
845.00	843.00
845.25	874.00
845.50	862.00
845.75	849.00
845.99	877.00
846.24	869.00
846.49	880.00
846.74	850.00
846.98	855.00
847.23	855.00
847.48	866.00
847.73	836.00
847.97	855.00
848.22	870.00
848.47	874.00
848.72	846.00
848.96	860.00
849.21	871.00
849.46	847.00
849.71	830.00
849.95	854.00
850.20	840.00
850.45	859.00
850.70	840.00
850.94	854.00
851.19	851.00
851.44	842.00
851.69	839.00
851.93	851.00
852.18	866.00
852.43	872.00
852.68	865.00
852.92	893.00
853.17	914.00
853.42	889.00
853.66	862.00
853.91	881.00
854.16	859.00
854.41	902.00
854.65	860.00
854.90	863.00
855.15	863.00
855.40	864.00
855.64	846.00
855.89	848.00
856.14	863.00
856.39	873.00
856.63	838.00
856.88	860.00
857.13	862.00
857.37	858.00
857.62	825.00
857.87	814.00
858.12	850.00
858.36	893.00
858.61	821.00
858.86	849.00
859.10	883.00
859.35	875.00
859.60	840.00
859.85	820.00
860.09	832.00
860.34	866.00
860.59	849.00
860.83	853.00
861.08	852.00
861.33	902.00
861.58	868.00
861.82	842.00
862.07	873.00
862.32	865.00
862.56	840.00
862.81	861.00
863.06	856.00
863.30	866.00
863.55	844.00
863.80	848.00
864.05	846.00
864.29	857.00
864.54	855.00
864.79	853.00
865.03	868.00
865.28	905.00
865.53	851.00
865.77	836.00
866.02	862.00
866.27	888.00
866.51	865.00
866.76	842.00
867.01	848.00
867.26	872.00
867.50	853.00
867.75	843.00
868.00	871.00
868.24	866.00
868.49	830.00
868.74	837.00
868.98	852.00
869.23	887.00
869.48	858.00
869.72	849.00
869.97	845.00
870.22	877.00
870.46	850.00
870.71	864.00
870.96	883.00
871.20	888.00
871.45	836.00
871.70	853.00
871.94	884.00
872.19	898.00
872.44	873.00
872.68	869.00
872.93	871.00
873.18	890.00
873.42	838.00
873.67	861.00
873.92	874.00
874.16	877.00
874.41	861.00
874.66	870.00
874.90	872.00
875.15	907.00
875.40	866.00
875.64	883.00
875.89	862.00
876.14	861.00
876.38	845.00
876.63	850.00
876.88	860.00
877.12	877.00
877.37	843.00
877.62	872.00
877.86	841.00
878.11	865.00
878.36	826.00
878.60	848.00
878.85	858.00
879.09	866.00
879.34	844.00
879.59	869.00
879.83	880.00
880.08	901.00
880.33	861.00
880.57	869.00
880.82	858.00
881.07	865.00
881.31	851.00
881.56	862.00
881.80	852.00
882.05	856.00
882.30	821.00
882.54	848.00
882.79	878.00
883.04	910.00
883.28	875.00
883.53	856.00
883.77	879.00
884.02	890.00
884.27	839.00
884.51	851.00
884.76	853.00
885.01	887.00
885.25	838.00
885.50	873.00
885.74	859.00
885.99	892.00
886.24	858.00
886.48	858.00
886.73	878.00
886.98	891.00
887.22	858.00
887.47	868.00
887.71	874.00
887.96	869.00
888.21	841.00
888.45	828.00
888.70	841.00
888.94	876.00
889.19	824.00
889.44	844.00
889.68	880.00
889.93	889.00
890.17	850.00
890.42	863.00
890.67	877.00
890.91	935.00
891.16	865.00
891.40	842.00
891.65	837.00
891.90	872.00
892.14	826.00
892.39	860.00
892.63	865.00
892.88	892.00
893.13	862.00
893.37	853.00
893.62	847.00
893.86	870.00
894.11	860.00
894.36	855.00
894.60	839.00
894.85	853.00
895.09	845.00
895.34	883.00
895.59	857.00
895.83	860.00
896.08	837.00
896.32	826.00
896.57	845.00
896.81	871.00
897.06	844.00
897.31	855.00
897.55	885.00
897.80	858.00
898.04	822.00
898.29	836.00
898.53	855.00
898.78	876.00
899.03	854.00
899.27	846.00
899.52	879.00
899.76	894.00
900.01	836.00
900.25	865.00
900.50	876.00
900.75	885.00
900.99	853.00
901.24	906.00
901.48	876.00
901.73	884.00
901.97	854.00
902.22	865.00
902.47	881.00
902.71	892.00
902.96	844.00
903.20	860.00
903.45	881.00
903.69	867.00
903.94	855.00
904.18	836.00
904.43	860.00
904.68	883.00
904.92	826.00
905.17	851.00
905.41	882.00
905.66	891.00
905.90	868.00
906.15	865.00
906.39	870.00
906.64	873.00
906.88	826.00
907.13	854.00
907.38	885.00
907.62	881.00
907.87	841.00
908.11	864.00
908.36	840.00
908.60	863.00
908.85	825.00
909.09	853.00
909.34	862.00
909.58	884.00
909.83	835.00
910.07	843.00
910.32	901.00
910.56	907.00
910.81	836.00
911.06	872.00
911.30	889.00
911.55	867.00
911.79	838.00
912.04	845.00
912.28	862.00
912.53	887.00
912.77	880.00
913.02	871.00
913.26	855.00
913.51	883.00
913.75	853.00
914.00	854.00
914.24	863.00
914.49	886.00
914.73	840.00
914.98	872.00
915.22	878.00
915.47	862.00
915.71	842.00
915.96	870.00
916.20	873.00
916.45	859.00
916.69	836.00
916.94	860.00
917.18	868.00
917.43	864.00
917.67	843.00
917.92	836.00
918.16	859.00
918.41	883.00
918.65	826.00
918.90	833.00
919.14	831.00
919.39	873.00
919.63	848.00
919.88	840.00
920.12	865.00
920.37	861.00
920.61	835.00
920.86	858.00
921.10	875.00
921.35	856.00
921.59	842.00
921.84	852.00
922.08	892.00
922.33	892.00
922.57	843.00
922.82	840.00
923.06	856.00
923.31	882.00
923.55	818.00
923.80	846.00
924.04	850.00
924.29	876.00
924.53	826.00
924.78	867.00
925.02	859.00
925.27	876.00
925.51	853.00
925.76	880.00
926.00	863.00
926.25	860.00
926.49	841.00
926.73	876.00
926.98	875.00
927.22	881.00
927.47	865.00
927.71	854.00
927.96	876.00
928.20	881.00
928.45	869.00
928.69	883.00
928.94	868.00
929.18	856.00
929.43	864.00
929.67	862.00
929.91	868.00
930.16	874.00
930.40	835.00
930.65	837.00
930.89	863.00
931.14	896.00
931.38	867.00
931.63	869.00
931.87	874.00
932.12	864.00
932.36	821.00
932.60	849.00
932.85	871.00
933.09	860.00
933.34	827.00
933.58	864.00
933.83	870.00
934.07	887.00
934.32	842.00
934.56	893.00
934.80	908.00
935.05	909.00
935.29	870.00
935.54	864.00
935.78	874.00
936.03	867.00
936.27	832.00
936.52	860.00
936.76	866.00
937.00	874.00
937.25	848.00
937.49	860.00
937.74	892.00
937.98	892.00
938.23	829.00
938.47	837.00
938.71	862.00
938.96	884.00
939.20	828.00
939.45	849.00
939.69	851.00
939.94	874.00
940.18	837.00
940.42	848.00
940.67	868.00
940.91	865.00
941.16	839.00
941.40	840.00
941.64	853.00
941.89	882.00
942.13	838.00
942.38	880.00
942.62	926.00
942.87	886.00
943.11	868.00
943.35	856.00
943.60	877.00
943.84	905.00
944.09	868.00
944.33	875.00
944.57	901.00
944.82	868.00
945.06	843.00
945.31	875.00
945.55	849.00
945.79	872.00
946.04	852.00
946.28	846.00
946.53	856.00
946.77	870.00
947.01	830.00
947.26	882.00
947.50	855.00
947.75	874.00
947.99	865.00
948.23	871.00
948.48	858.00
948.72	840.00
948.97	848.00
949.21	857.00
949.45	873.00
949.70	896.00
949.94	865.00
950.18	884.00
950.43	866.00
950.67	868.00
950.92	851.00
951.16	829.00
951.40	851.00
951.65	872.00
951.89	855.00
952.13	863.00
952.38	860.00
952.62	852.00
952.87	835.00
953.11	867.00
953.35	887.00
953.60	882.00
953.84	823.00
954.08	828.00
954.33	856.00
954.57	870.00
954.82	858.00
955.06	845.00
955.30	847.00
955.55	860.00
955.79	853.00
956.03	857.00
956.28	847.00
956.52	846.00
956.76	846.00
957.01	868.00
957.25	868.00
957.50	874.00
957.74	845.00
957.98	839.00
958.23	859.00
958.47	874.00
958.71	852.00
958.96	868.00
959.20	903.00
959.44	868.00
959.69	848.00
959.93	877.00
960.17	865.00
960.42	902.00
960.66	869.00
960.90	852.00
961.15	874.00
961.39	868.00
961.64	848.00
961.88	832.00
962.12	871.00
962.37	865.00
962.61	852.00
962.85	855.00
963.10	874.00
963.34	876.00
963.58	826.00
963.83	850.00
964.07	873.00
964.31	873.00
964.56	861.00
964.80	846.00
965.04	858.00
965.29	867.00
965.53	827.00
965.77	826.00
966.02	825.00
966.26	858.00
966.50	842.00
966.74	870.00
966.99	888.00
967.23	883.00
967.47	849.00
967.72	853.00
967.96	866.00
968.20	868.00
968.45	836.00
968.69	828.00
968.93	845.00
969.18	880.00
969.42	893.00
969.66	871.00
969.91	856.00
970.15	875.00
970.39	836.00
970.64	866.00
970.88	871.00
971.12	884.00
971.36	859.00
971.61	841.00
971.85	849.00
972.09	868.00
972.34	842.00
972.58	865.00
972.82	881.00
973.07	895.00
973.31	825.00
973.55	867.00
973.79	885.00
974.04	912.00
974.28	883.00
974.52	859.00
974.77	853.00
975.01	897.00
975.25	849.00
975.50	833.00
975.74	862.00
975.98	879.00
976.22	855.00
976.47	848.00
976.71	856.00
976.95	874.00
977.20	870.00
977.44	849.00
977.68	849.00
977.92	863.00
978.17	846.00
978.41	852.00
978.65	880.00
978.90	859.00
979.14	861.00
979.38	869.00
979.62	854.00
979.87	841.00
980.11	836.00
980.35	860.00
980.59	869.00
980.84	873.00
981.08	844.00
981.32	869.00
981.57	891.00
981.81	870.00
982.05	854.00
982.29	858.00
982.54	854.00
982.78	860.00
983.02	832.00
983.26	873.00
983.51	896.00
983.75	893.00
983.99	836.00
984.23	867.00
984.48	866.00
984.72	896.00
984.96	849.00
985.20	843.00
985.45	901.00
985.69	873.00
985.93	863.00
986.17	870.00
986.42	853.00
986.66	863.00
986.90	839.00
987.14	834.00
987.39	855.00
987.63	849.00
987.87	825.00
988.11	830.00
988.36	865.00
988.60	854.00
988.84	849.00
989.08	831.00
989.33	888.00
989.57	887.00
989.81	827.00
990.05	839.00
990.30	859.00
990.54	846.00
990.78	826.00
991.02	847.00
991.27	870.00
991.51	880.00
991.75	851.00
991.99	875.00
992.23	862.00
992.48	835.00
992.72	817.00
992.96	856.00
993.20	856.00
993.45	878.00
993.69	869.00
993.93	843.00
994.17	859.00
994.41	874.00
994.66	837.00
994.90	851.00
995.14	901.00
995.38	873.00
995.63	844.00
995.87	844.00
996.11	890.00
996.35	878.00
996.59	830.00
996.84	837.00
997.08	880.00
997.32	862.00
997.56	842.00
997.80	817.00
998.05	851.00
998.29	833.00
998.53	827.00
998.77	851.00
999.01	862.00
999.26	857.00
999.50	840.00
999.74	838.00
999.98	874.00
1000.22	877.00
1000.47	827.00
1000.71	844.00
1000.95	877.00
1001.19	866.00
1001.43	848.00
1001.68	865.00
1001.92	860.00
1002.16	856.00
1002.40	830.00
1002.64	848.00
1002.89	860.00
1003.13	874.00
1003.37	872.00
1003.61	848.00
1003.85	870.00
1004.10	859.00
1004.34	841.00
1004.58	839.00
1004.82	853.00
1005.06	873.00
1005.30	832.00
1005.55	846.00
1005.79	853.00
1006.03	862.00
1006.27	837.00
1006.51	848.00
1006.76	860.00
1007.00	872.00
1007.24	834.00
1007.48	866.00
1007.72	888.00
1007.96	877.00
1008.21	845.00
1008.45	872.00
1008.69	880.00
1008.93	888.00
1009.17	857.00
1009.41	868.00
1009.66	893.00
1009.90	873.00
1010.14	827.00
1010.38	855.00
1010.62	885.00
1010.86	894.00
1011.10	864.00
1011.35	859.00
1011.59	860.00
1011.83	832.00
1012.07	817.00
1012.31	845.00
1012.55	857.00
1012.80	869.00
1013.04	862.00
1013.28	878.00
1013.52	862.00
1013.76	872.00
1014.00	825.00
1014.24	838.00
1014.49	874.00
1014.73	909.00
1014.97	874.00
1015.21	851.00
1015.45	884.00
1015.69	877.00
1015.93	854.00
1016.18	839.00
1016.42	884.00
1016.66	885.00
1016.90	849.00
1017.14	836.00
1017.38	841.00
1017.62	870.00
1017.87	850.00
1018.11	848.00
1018.35	869.00
1018.59	870.00
1018.83	827.00
1019.07	850.00
1019.31	889.00
1019.55	893.00
1019.80	864.00
1020.04	861.00
1020.28	852.00
1020.52	868.00
1020.76	851.00
1021.00	828.00
1021.24	845.00
1021.48	840.00
1021.73	844.00
1021.97	853.00
1022.21	867.00
1022.45	878.00
1022.69	841.00
1022.93	837.00
1023.17	880.00
1023.41	900.00
1023.65	858.00
1023.90	880.00
1024.14	883.00
1024.38	856.00
1024.62	838.00
1024.86	847.00
1025.10	878.00
1025.34	867.00
1025.58	842.00
1025.82	849.00
1026.07	875.00
1026.31	879.00
1026.55	838.00
1026.79	838.00
1027.03	883.00
1027.27	870.00
1027.51	822.00
1027.75	813.00
1027.99	834.00
1028.23	889.00
1028.47	866.00
1028.72	851.00
1028.96	870.00
1029.20	872.00
1029.44	848.00
1029.68	845.00
1029.92	863.00
1030.16	875.00
1030.40	814.00
1030.64	829.00
1030.88	848.00
1031.12	855.00
1031.37	824.00
1031.61	860.00
1031.85	871.00
1032.09	879.00
1032.33	842.00
1032.57	885.00
1032.81	867.00
1033.05	896.00
1033.29	853.00
1033.53	849.00
1033.77	905.00
1034.01	901.00
1034.25	857.00
1034.50	859.00
1034.74	868.00
1034.98	874.00
1035.22	862.00
1035.46	862.00
1035.70	893.00
1035.94	889.00
1036.18	854.00
1036.42	851.00
1036.66	855.00
1036.90	857.00
1037.14	818.00
1037.38	838.00
1037.62	878.00
1037.86	864.00
1038.10	850.00
1038.35	852.00
1038.59	894.00
1038.83	888.00
1039.07	867.00
1039.31	882.00
1039.55	852.00
1039.79	859.00
1040.03	822.00
1040.27	825.00
1040.51	885.00
1040.75	902.00
1040.99	846.00
1041.23	855.00
1041.47	875.00
1041.71	905.00
1041.95	878.00
1042.19	854.00
1042.43	892.00
1042.67	901.00
1042.91	861.00
1043.15	839.00
1043.39	890.00
1043.64	868.00
1043.88	837.00
1044.12	867.00
1044.36	895.00
1044.60	888.00
1044.84	877.00
1045.08	877.00
1045.32	867.00
1045.56	899.00
1045.80	856.00
1046.04	853.00
1046.28	895.00
1046.52	884.00
1046.76	842.00
1047.00	853.00
1047.24	882.00
1047.48	867.00
1047.72	844.00
1047.96	866.00
1048.20	865.00
1048.44	867.00
1048.68	827.00
1048.92	859.00
1049.16	875.00
1049.40	866.00
1049.64	846.00
1049.88	857.00
1050.12	885.00
1050.36	891.00
1050.60	841.00
1050.84	859.00
1051.08	874.00
1051.32	871.00
1051.56	860.00
1051.80	846.00
1052.04	870.00
1052.28	901.00
1052.52	842.00
1052.76	837.00
1053.00	865.00
1053.24	882.00
1053.48	838.00
1053.72	845.00
1053.96	853.00
1054.20	858.00
1054.44	851.00
1054.68	876.00
1054.92	883.00
1055.16	852.00
1055.40	844.00
1055.64	856.00
1055.88	886.00
1056.12	901.00
1056.36	836.00
1056.60	843.00
1056.84	879.00
1057.08	879.00
1057.32	854.00
1057.56	846.00
1057.80	858.00
1058.04	887.00
1058.28	834.00
1058.52	838.00
1058.76	881.00
1059.00	875.00
1059.24	831.00
1059.48	837.00
1059.72	873.00
1059.96	875.00
1060.20	871.00
1060.44	885.00
1060.68	890.00
1060.92	860.00
1061.16	810.00
1061.40	855.00
1061.64	863.00
1061.88	882.00
1062.11	859.00
1062.35	836.00
1062.59	844.00
1062.83	898.00
1063.07	863.00
1063.31	824.00
1063.55	851.00
1063.79	876.00
1064.03	843.00
1064.27	829.00
1064.51	872.00
1064.75	871.00
1064.99	856.00
1065.23	857.00
1065.47	846.00
1065.71	885.00
1065.95	851.00
1066.19	856.00
1066.43	866.00
1066.67	866.00
1066.91	854.00
1067.15	840.00
1067.38	846.00
1067.62	871.00
1067.86	833.00
1068.10	857.00
1068.34	904.00
1068.58	898.00
1068.82	845.00
1069.06	831.00
1069.30	856.00
1069.54	886.00
1069.78	877.00
1070.02	874.00
1070.26	881.00
1070.50	897.00
1070.74	865.00
1070.98	874.00
1071.21	873.00
1071.45	862.00
1071.69	832.00
1071.93	868.00
1072.17	880.00
1072.41	884.00
1072.65	886.00
1072.89	903.00
1073.13	880.00
1073.37	856.00
1073.61	824.00
1073.85	864.00
1074.09	856.00
1074.32	856.00
1074.56	836.00
1074.80	924.00
1075.04	1123.00
1075.28	961.00
1075.52	854.00
1075.76	863.00
1076.00	900.00
1076.24	881.00
1076.48	874.00
1076.72	874.00
1076.96	883.00
1077.19	886.00
1077.43	855.00
1077.67	864.00
1077.91	870.00
1078.15	855.00
1078.39	848.00
1078.63	856.00
1078.87	846.00
1079.11	857.00
1079.35	844.00
1079.58	833.00
1079.82	854.00
1080.06	864.00
1080.30	836.00
1080.54	865.00
1080.78	903.00
1081.02	859.00
1081.26	838.00
1081.50	856.00
1081.74	858.00
1081.97	881.00
1082.21	862.00
1082.45	868.00
1082.69	861.00
1082.93	861.00
1083.17	856.00
1083.41	846.00
1083.65	900.00
1083.88	899.00
1084.12	870.00
1084.36	874.00
1084.60	886.00
1084.84	898.00
1085.08	832.00
1085.32	848.00
1085.56	900.00
1085.80	881.00
1086.03	850.00
1086.27	837.00
1086.51	862.00
1086.75	888.00
1086.99	849.00
1087.23	828.00
1087.47	869.00
1087.70	859.00
1087.94	839.00
1088.18	881.00
1088.42	918.00
1088.66	870.00
1088.90	818.00
1089.14	848.00
1089.38	866.00
1089.61	884.00
1089.85	855.00
1090.09	836.00
1090.33	894.00
1090.57	903.00
1090.81	821.00
1091.05	835.00
1091.28	864.00
1091.52	873.00
1091.76	847.00
1092.00	863.00
1092.24	866.00
1092.48	897.00
1092.71	837.00
1092.95	863.00
1093.19	872.00
1093.43	874.00
1093.67	840.00
1093.91	848.00
1094.15	871.00
1094.38	874.00
1094.62	848.00
1094.86	854.00
1095.10	858.00
1095.34	856.00
1095.58	838.00
1095.81	846.00
1096.05	888.00
1096.29	890.00
1096.53	824.00
1096.77	840.00
1097.01	837.00
1097.24	884.00
1097.48	830.00
1097.72	872.00
1097.96	875.00
1098.20	879.00
1098.44	838.00
1098.67	830.00
1098.91	873.00
1099.15	885.00
1099.39	837.00
1099.63	871.00
1099.86	874.00
1100.10	840.00
1100.34	844.00
1100.58	857.00
1100.82	863.00
1101.06	864.00
1101.29	832.00
1101.53	850.00
1101.77	882.00
1102.01	867.00
1102.25	855.00
1102.48	861.00
1102.72	896.00
1102.96	882.00
1103.20	839.00
1103.44	852.00
1103.67	857.00
1103.91	880.00
1104.15	828.00
1104.39	827.00
1104.63	860.00
1104.86	845.00
1105.10	844.00
1105.34	881.00
1105.58	866.00
1105.82	858.00
1106.05	854.00
1106.29	871.00
1106.53	882.00
1106.77	898.00
1107.01	852.00
1107.24	863.00
1107.48	886.00
1107.72	884.00
1107.96	833.00
1108.20	859.00
1108.43	871.00
1108.67	868.00
1108.91	848.00
1109.15	847.00
1109.39	863.00
1109.62	864.00
1109.86	833.00
1110.10	861.00
1110.34	900.00
1110.57	908.00
1110.81	854.00
1111.05	867.00
1111.29	888.00
1111.53	904.00
1111.76	857.00
1112.00	858.00
1112.24	889.00
1112.48	876.00
1112.71	844.00
1112.95	848.00
1113.19	893.00
1113.43	871.00
1113.66	818.00
1113.90	857.00
1114.14	871.00
1114.38	870.00
1114.62	846.00
1114.85	863.00
1115.09	869.00
1115.33	918.00
1115.57	864.00
1115.80	853.00
1116.04	870.00
1116.28	856.00
1116.52	832.00
1116.75	844.00
1116.99	878.00
1117.23	902.00
1117.47	854.00
1117.70	877.00
1117.94	919.00
1118.18	858.00
1118.42	836.00
1118.65	883.00
1118.89	897.00
1119.13	888.00
1119.37	838.00
1119.60	858.00
1119.84	880.00
>>>>>End Processed Spectral Data<<<<<
