SpectraSuite Data File
++++++++++++++++++++++++++++++++++++
Date: Fri Dec 06 14:50:34 CET 2024
User: student
Dark Spectrum Present: No
Reference Spectrum Present: No
Number of Sampled Component Spectra: 1
Spectrometers: HR4C155
Integration Time (usec): 100000 (HR4C155)
Spectra Averaged: 1 (HR4C155)
Boxcar Smoothing: 0 (HR4C155)
Correct for Electrical Dark: No (HR4C155)
Strobe/Lamp Enabled: No (HR4C155)
Correct for Detector Non-linearity: No (HR4C155)
Correct for Stray Light: No (HR4C155)
Number of Pixels in Processed Spectrum: 3648
>>>>>Begin Processed Spectral Data<<<<<
195.39	717.00
195.66	717.00
195.93	717.00
196.20	675.00
196.46	706.00
196.73	808.00
197.00	824.00
197.27	818.00
197.54	838.00
197.81	853.00
198.08	837.00
198.35	862.00
198.61	882.00
198.88	845.00
199.15	832.00
199.42	854.00
199.69	872.00
199.96	861.00
200.23	865.00
200.49	868.00
200.76	875.00
201.03	877.00
201.30	857.00
201.57	906.00
201.84	916.00
202.11	876.00
202.38	876.00
202.64	904.00
202.91	917.00
203.18	848.00
203.45	896.00
203.72	970.00
203.99	916.00
204.25	900.00
204.52	898.00
204.79	929.00
205.06	935.00
205.33	870.00
205.60	889.00
205.87	921.00
206.13	903.00
206.40	889.00
206.67	880.00
206.94	902.00
207.21	888.00
207.48	891.00
207.75	887.00
208.01	922.00
208.28	892.00
208.55	869.00
208.82	895.00
209.09	887.00
209.36	909.00
209.62	898.00
209.89	915.00
210.16	917.00
210.43	941.00
210.70	877.00
210.97	891.00
211.23	915.00
211.50	933.00
211.77	885.00
212.04	874.00
212.31	894.00
212.58	928.00
212.84	879.00
213.11	889.00
213.38	856.00
213.65	899.00
213.92	873.00
214.18	886.00
214.45	930.00
214.72	917.00
214.99	857.00
215.26	874.00
215.53	887.00
215.79	915.00
216.06	908.00
216.33	904.00
216.60	888.00
216.87	928.00
217.13	854.00
217.40	878.00
217.67	914.00
217.94	931.00
218.21	882.00
218.48	899.00
218.74	949.00
219.01	931.00
219.28	865.00
219.55	863.00
219.82	903.00
220.08	926.00
220.35	873.00
220.62	900.00
220.89	938.00
221.16	943.00
221.42	905.00
221.69	897.00
221.96	907.00
222.23	918.00
222.50	908.00
222.76	928.00
223.03	917.00
223.30	884.00
223.57	859.00
223.84	857.00
224.10	870.00
224.37	908.00
224.64	871.00
224.91	869.00
225.18	902.00
225.44	925.00
225.71	891.00
225.98	901.00
226.25	921.00
226.51	937.00
226.78	884.00
227.05	884.00
227.32	903.00
227.59	899.00
227.85	898.00
228.12	893.00
228.39	921.00
228.66	939.00
228.92	937.00
229.19	906.00
229.46	922.00
229.73	891.00
230.00	871.00
230.26	902.00
230.53	937.00
230.80	914.00
231.07	850.00
231.33	873.00
231.60	915.00
231.87	932.00
232.14	884.00
232.41	929.00
232.67	906.00
232.94	923.00
233.21	874.00
233.48	885.00
233.74	882.00
234.01	890.00
234.28	890.00
234.55	901.00
234.81	894.00
235.08	927.00
235.35	886.00
235.62	883.00
235.88	884.00
236.15	906.00
236.42	890.00
236.69	897.00
236.95	925.00
237.22	898.00
237.49	882.00
237.76	880.00
238.02	919.00
238.29	944.00
238.56	870.00
238.83	883.00
239.09	891.00
239.36	917.00
239.63	881.00
239.90	899.00
240.16	929.00
240.43	946.00
240.70	873.00
240.97	876.00
241.23	893.00
241.50	902.00
241.77	883.00
242.04	891.00
242.30	859.00
242.57	889.00
242.84	878.00
243.11	888.00
243.37	866.00
243.64	909.00
243.91	872.00
244.18	889.00
244.44	886.00
244.71	884.00
244.98	872.00
245.24	900.00
245.51	905.00
245.78	926.00
246.05	870.00
246.31	875.00
246.58	904.00
246.85	885.00
247.12	873.00
247.38	908.00
247.65	897.00
247.92	902.00
248.18	886.00
248.45	902.00
248.72	889.00
248.99	894.00
249.25	869.00
249.52	875.00
249.79	898.00
250.05	889.00
250.32	864.00
250.59	882.00
250.86	878.00
251.12	886.00
251.39	857.00
251.66	880.00
251.92	922.00
252.19	932.00
252.46	865.00
252.73	910.00
252.99	938.00
253.26	935.00
253.53	864.00
253.79	897.00
254.06	896.00
254.33	900.00
254.60	863.00
254.86	869.00
255.13	916.00
255.40	945.00
255.66	894.00
255.93	899.00
256.20	897.00
256.46	910.00
256.73	883.00
257.00	907.00
257.26	909.00
257.53	913.00
257.80	880.00
258.07	893.00
258.33	942.00
258.60	921.00
258.87	869.00
259.13	883.00
259.40	891.00
259.67	948.00
259.93	893.00
260.20	915.00
260.47	932.00
260.73	897.00
261.00	886.00
261.27	892.00
261.53	922.00
261.80	907.00
262.07	872.00
262.34	900.00
262.60	875.00
262.87	892.00
263.14	873.00
263.40	913.00
263.67	891.00
263.94	891.00
264.20	858.00
264.47	864.00
264.74	866.00
265.00	881.00
265.27	855.00
265.54	864.00
265.80	898.00
266.07	909.00
266.34	866.00
266.60	871.00
266.87	905.00
267.14	907.00
267.40	849.00
267.67	852.00
267.94	895.00
268.20	892.00
268.47	861.00
268.74	868.00
269.00	884.00
269.27	878.00
269.54	846.00
269.80	867.00
270.07	917.00
270.33	885.00
270.60	845.00
270.87	877.00
271.13	881.00
271.40	903.00
271.67	836.00
271.93	841.00
272.20	909.00
272.47	885.00
272.73	845.00
273.00	881.00
273.27	885.00
273.53	930.00
273.80	880.00
274.07	868.00
274.33	885.00
274.60	908.00
274.86	867.00
275.13	899.00
275.40	890.00
275.66	913.00
275.93	870.00
276.20	875.00
276.46	878.00
276.73	866.00
277.00	873.00
277.26	909.00
277.53	918.00
277.79	894.00
278.06	869.00
278.33	905.00
278.59	905.00
278.86	875.00
279.13	863.00
279.39	878.00
279.66	912.00
279.93	925.00
280.19	881.00
280.46	883.00
280.72	891.00
280.99	912.00
281.26	864.00
281.52	873.00
281.79	892.00
282.05	908.00
282.32	885.00
282.59	890.00
282.85	927.00
283.12	921.00
283.39	890.00
283.65	907.00
283.92	907.00
284.18	906.00
284.45	890.00
284.72	878.00
284.98	896.00
285.25	886.00
285.51	905.00
285.78	882.00
286.05	886.00
286.31	887.00
286.58	853.00
286.84	858.00
287.11	881.00
287.38	911.00
287.64	902.00
287.91	882.00
288.17	897.00
288.44	896.00
288.71	845.00
288.97	890.00
289.24	906.00
289.50	886.00
289.77	885.00
290.04	857.00
290.30	874.00
290.57	923.00
290.83	866.00
291.10	870.00
291.37	892.00
291.63	876.00
291.90	886.00
292.16	893.00
292.43	906.00
292.70	893.00
292.96	852.00
293.23	852.00
293.49	864.00
293.76	902.00
294.02	870.00
294.29	889.00
294.56	918.00
294.82	900.00
295.09	883.00
295.35	881.00
295.62	921.00
295.89	928.00
296.15	872.00
296.42	867.00
296.68	882.00
296.95	898.00
297.21	884.00
297.48	883.00
297.75	900.00
298.01	918.00
298.28	887.00
298.54	908.00
298.81	888.00
299.07	903.00
299.34	863.00
299.61	884.00
299.87	911.00
300.14	885.00
300.40	874.00
300.67	876.00
300.93	908.00
301.20	931.00
301.46	860.00
301.73	877.00
302.00	896.00
302.26	891.00
302.53	898.00
302.79	869.00
303.06	897.00
303.32	953.00
303.59	868.00
303.85	875.00
304.12	889.00
304.39	904.00
304.65	866.00
304.92	881.00
305.18	893.00
305.45	903.00
305.71	866.00
305.98	892.00
306.24	874.00
306.51	877.00
306.77	881.00
307.04	882.00
307.31	903.00
307.57	903.00
307.84	840.00
308.10	874.00
308.37	877.00
308.63	876.00
308.90	865.00
309.16	889.00
309.43	918.00
309.69	885.00
309.96	876.00
310.22	883.00
310.49	870.00
310.76	882.00
311.02	860.00
311.29	871.00
311.55	885.00
311.82	890.00
312.08	885.00
312.35	881.00
312.61	905.00
312.88	910.00
313.14	876.00
313.41	873.00
313.67	875.00
313.94	909.00
314.20	884.00
314.47	900.00
314.73	884.00
315.00	885.00
315.26	858.00
315.53	897.00
315.79	913.00
316.06	917.00
316.32	877.00
316.59	904.00
316.85	883.00
317.12	902.00
317.39	840.00
317.65	873.00
317.92	903.00
318.18	895.00
318.45	873.00
318.71	896.00
318.98	931.00
319.24	893.00
319.51	876.00
319.77	869.00
320.04	884.00
320.30	888.00
320.57	860.00
320.83	848.00
321.10	863.00
321.36	873.00
321.63	851.00
321.89	882.00
322.16	919.00
322.42	894.00
322.69	851.00
322.95	872.00
323.22	890.00
323.48	913.00
323.75	861.00
324.01	881.00
324.28	890.00
324.54	904.00
324.80	884.00
325.07	880.00
325.33	892.00
325.60	890.00
325.86	862.00
326.13	869.00
326.39	888.00
326.66	880.00
326.92	834.00
327.19	876.00
327.45	925.00
327.72	938.00
327.98	874.00
328.25	878.00
328.51	888.00
328.78	903.00
329.04	873.00
329.31	892.00
329.57	905.00
329.84	901.00
330.10	852.00
330.37	861.00
330.63	900.00
330.89	924.00
331.16	867.00
331.42	874.00
331.69	926.00
331.95	898.00
332.22	896.00
332.48	918.00
332.75	903.00
333.01	862.00
333.28	865.00
333.54	887.00
333.81	886.00
334.07	911.00
334.34	890.00
334.60	899.00
334.86	925.00
335.13	922.00
335.39	883.00
335.66	885.00
335.92	916.00
336.19	890.00
336.45	837.00
336.72	879.00
336.98	889.00
337.24	913.00
337.51	851.00
337.77	871.00
338.04	902.00
338.30	892.00
338.57	844.00
338.83	867.00
339.10	912.00
339.36	913.00
339.63	859.00
339.89	847.00
340.15	875.00
340.42	899.00
340.68	898.00
340.95	899.00
341.21	893.00
341.48	895.00
341.74	844.00
342.00	853.00
342.27	887.00
342.53	889.00
342.80	868.00
343.06	877.00
343.33	894.00
343.59	908.00
343.85	867.00
344.12	893.00
344.38	933.00
344.65	920.00
344.91	888.00
345.18	870.00
345.44	887.00
345.70	870.00
345.97	816.00
346.23	860.00
346.50	888.00
346.76	899.00
347.03	867.00
347.29	867.00
347.55	880.00
347.82	884.00
348.08	833.00
348.35	862.00
348.61	943.00
348.87	897.00
349.14	849.00
349.40	863.00
349.67	889.00
349.93	877.00
350.20	867.00
350.46	885.00
350.72	901.00
350.99	902.00
351.25	867.00
351.52	856.00
351.78	878.00
352.04	899.00
352.31	881.00
352.57	881.00
352.84	861.00
353.10	884.00
353.36	879.00
353.63	862.00
353.89	873.00
354.16	888.00
354.42	882.00
354.68	886.00
354.95	915.00
355.21	907.00
355.48	855.00
355.74	898.00
356.00	909.00
356.27	909.00
356.53	857.00
356.80	852.00
357.06	890.00
357.32	910.00
357.59	888.00
357.85	902.00
358.11	925.00
358.38	920.00
358.64	863.00
358.91	880.00
359.17	889.00
359.43	911.00
359.70	887.00
359.96	876.00
360.22	902.00
360.49	872.00
360.75	874.00
361.02	862.00
361.28	876.00
361.54	885.00
361.81	850.00
362.07	883.00
362.33	890.00
362.60	879.00
362.86	865.00
363.13	893.00
363.39	893.00
363.65	906.00
363.92	834.00
364.18	815.00
364.44	887.00
364.71	903.00
364.97	873.00
365.24	869.00
365.50	884.00
365.76	888.00
366.03	863.00
366.29	899.00
366.55	897.00
366.82	876.00
367.08	850.00
367.34	892.00
367.61	894.00
367.87	904.00
368.13	893.00
368.40	895.00
368.66	920.00
368.93	904.00
369.19	857.00
369.45	864.00
369.72	896.00
369.98	886.00
370.24	845.00
370.51	858.00
370.77	893.00
371.03	885.00
371.30	857.00
371.56	885.00
371.82	910.00
372.09	907.00
372.35	887.00
372.61	881.00
372.88	894.00
373.14	903.00
373.40	878.00
373.67	873.00
373.93	889.00
374.19	915.00
374.46	863.00
374.72	871.00
374.98	894.00
375.25	908.00
375.51	889.00
375.77	905.00
376.04	901.00
376.30	889.00
376.56	855.00
376.83	875.00
377.09	908.00
377.35	902.00
377.62	887.00
377.88	872.00
378.14	878.00
378.41	910.00
378.67	866.00
378.93	863.00
379.20	894.00
379.46	881.00
379.72	861.00
379.99	843.00
380.25	856.00
380.51	856.00
380.77	881.00
381.04	882.00
381.30	902.00
381.56	921.00
381.83	886.00
382.09	884.00
382.35	870.00
382.62	909.00
382.88	880.00
383.14	880.00
383.41	874.00
383.67	886.00
383.93	891.00
384.20	874.00
384.46	881.00
384.72	918.00
384.98	870.00
385.25	886.00
385.51	901.00
385.77	909.00
386.04	859.00
386.30	854.00
386.56	899.00
386.82	947.00
387.09	882.00
387.35	908.00
387.61	974.00
387.88	927.00
388.14	875.00
388.40	879.00
388.67	890.00
388.93	889.00
389.19	879.00
389.45	891.00
389.72	887.00
389.98	907.00
390.24	885.00
390.51	866.00
390.77	887.00
391.03	901.00
391.29	853.00
391.56	872.00
391.82	909.00
392.08	931.00
392.35	879.00
392.61	872.00
392.87	888.00
393.13	921.00
393.40	863.00
393.66	871.00
393.92	888.00
394.18	904.00
394.45	861.00
394.71	855.00
394.97	880.00
395.24	879.00
395.50	859.00
395.76	884.00
396.02	899.00
396.29	886.00
396.55	843.00
396.81	828.00
397.07	876.00
397.34	862.00
397.60	847.00
397.86	851.00
398.12	887.00
398.39	905.00
398.65	869.00
398.91	866.00
399.17	879.00
399.44	857.00
399.70	819.00
399.96	849.00
400.22	867.00
400.49	898.00
400.75	862.00
401.01	867.00
401.27	889.00
401.54	901.00
401.80	867.00
402.06	847.00
402.32	902.00
402.59	870.00
402.85	845.00
403.11	862.00
403.37	865.00
403.64	910.00
403.90	858.00
404.16	865.00
404.42	876.00
404.69	861.00
404.95	852.00
405.21	846.00
405.47	877.00
405.74	920.00
406.00	885.00
406.26	860.00
406.52	886.00
406.79	894.00
407.05	855.00
407.31	872.00
407.57	876.00
407.83	909.00
408.10	845.00
408.36	855.00
408.62	872.00
408.88	884.00
409.15	875.00
409.41	831.00
409.67	870.00
409.93	910.00
410.20	875.00
410.46	854.00
410.72	879.00
410.98	892.00
411.24	869.00
411.51	878.00
411.77	885.00
412.03	889.00
412.29	883.00
412.55	889.00
412.82	878.00
413.08	883.00
413.34	875.00
413.60	862.00
413.87	874.00
414.13	882.00
414.39	845.00
414.65	880.00
414.91	891.00
415.18	873.00
415.44	840.00
415.70	853.00
415.96	889.00
416.22	906.00
416.49	857.00
416.75	857.00
417.01	887.00
417.27	890.00
417.53	867.00
417.80	877.00
418.06	897.00
418.32	905.00
418.58	853.00
418.84	855.00
419.11	893.00
419.37	894.00
419.63	853.00
419.89	882.00
420.15	898.00
420.42	887.00
420.68	861.00
420.94	868.00
421.20	875.00
421.46	892.00
421.72	898.00
421.99	894.00
422.25	873.00
422.51	894.00
422.77	874.00
423.03	892.00
423.30	878.00
423.56	884.00
423.82	895.00
424.08	890.00
424.34	892.00
424.60	913.00
424.87	864.00
425.13	842.00
425.39	859.00
425.65	870.00
425.91	849.00
426.18	874.00
426.44	893.00
426.70	864.00
426.96	829.00
427.22	839.00
427.48	865.00
427.75	871.00
428.01	840.00
428.27	864.00
428.53	892.00
428.79	876.00
429.05	853.00
429.32	872.00
429.58	924.00
429.84	871.00
430.10	871.00
430.36	877.00
430.62	897.00
430.88	908.00
431.15	876.00
431.41	882.00
431.67	892.00
431.93	868.00
432.19	841.00
432.45	861.00
432.72	889.00
432.98	884.00
433.24	887.00
433.50	955.00
433.76	850.00
434.02	876.00
434.28	851.00
434.55	884.00
434.81	894.00
435.07	889.00
435.33	844.00
435.59	850.00
435.85	876.00
436.11	904.00
436.38	837.00
436.64	866.00
436.90	874.00
437.16	885.00
437.42	873.00
437.68	861.00
437.94	871.00
438.21	902.00
438.47	881.00
438.73	883.00
438.99	889.00
439.25	897.00
439.51	877.00
439.77	870.00
440.03	884.00
440.30	904.00
440.56	877.00
440.82	904.00
441.08	912.00
441.34	873.00
441.60	846.00
441.86	875.00
442.12	899.00
442.39	881.00
442.65	838.00
442.91	854.00
443.17	890.00
443.43	900.00
443.69	878.00
443.95	850.00
444.21	866.00
444.47	896.00
444.74	841.00
445.00	859.00
445.26	862.00
445.52	874.00
445.78	863.00
446.04	863.00
446.30	903.00
446.56	907.00
446.82	857.00
447.09	865.00
447.35	893.00
447.61	893.00
447.87	869.00
448.13	875.00
448.39	923.00
448.65	900.00
448.91	846.00
449.17	859.00
449.43	871.00
449.70	876.00
449.96	837.00
450.22	859.00
450.48	892.00
450.74	920.00
451.00	872.00
451.26	865.00
451.52	884.00
451.78	888.00
452.04	852.00
452.31	887.00
452.57	897.00
452.83	865.00
453.09	836.00
453.35	869.00
453.61	886.00
453.87	894.00
454.13	885.00
454.39	886.00
454.65	934.00
454.91	921.00
455.17	848.00
455.44	866.00
455.70	890.00
455.96	898.00
456.22	855.00
456.48	847.00
456.74	884.00
457.00	860.00
457.26	838.00
457.52	844.00
457.78	850.00
458.04	871.00
458.30	838.00
458.56	857.00
458.82	871.00
459.09	866.00
459.35	825.00
459.61	853.00
459.87	875.00
460.13	887.00
460.39	844.00
460.65	842.00
460.91	906.00
461.17	879.00
461.43	843.00
461.69	847.00
461.95	877.00
462.21	876.00
462.47	861.00
462.73	896.00
462.99	908.00
463.26	891.00
463.52	857.00
463.78	846.00
464.04	856.00
464.30	861.00
464.56	858.00
464.82	876.00
465.08	914.00
465.34	924.00
465.60	868.00
465.86	858.00
466.12	885.00
466.38	872.00
466.64	850.00
466.90	866.00
467.16	894.00
467.42	897.00
467.68	837.00
467.94	881.00
468.20	899.00
468.46	867.00
468.72	835.00
468.98	884.00
469.25	886.00
469.51	861.00
469.77	865.00
470.03	869.00
470.29	878.00
470.55	889.00
470.81	881.00
471.07	874.00
471.33	905.00
471.59	887.00
471.85	855.00
472.11	882.00
472.37	892.00
472.63	871.00
472.89	869.00
473.15	857.00
473.41	876.00
473.67	875.00
473.93	836.00
474.19	853.00
474.45	871.00
474.71	889.00
474.97	853.00
475.23	835.00
475.49	849.00
475.75	853.00
476.01	853.00
476.27	884.00
476.53	898.00
476.79	878.00
477.05	876.00
477.31	874.00
477.57	875.00
477.83	882.00
478.09	833.00
478.35	881.00
478.61	909.00
478.87	887.00
479.13	850.00
479.39	892.00
479.65	900.00
479.91	896.00
480.17	858.00
480.43	872.00
480.69	866.00
480.95	880.00
481.21	864.00
481.47	858.00
481.73	884.00
481.99	879.00
482.25	848.00
482.51	831.00
482.77	898.00
483.03	886.00
483.29	871.00
483.55	862.00
483.81	875.00
484.07	881.00
484.33	852.00
484.59	850.00
484.85	890.00
485.11	900.00
485.37	866.00
485.63	864.00
485.89	861.00
486.15	872.00
486.41	841.00
486.67	867.00
486.93	901.00
487.19	871.00
487.45	839.00
487.71	841.00
487.97	886.00
488.23	893.00
488.49	850.00
488.75	851.00
489.01	885.00
489.27	907.00
489.53	865.00
489.79	853.00
490.05	885.00
490.31	896.00
490.57	873.00
490.83	920.00
491.08	875.00
491.34	869.00
491.60	861.00
491.86	883.00
492.12	926.00
492.38	920.00
492.64	847.00
492.90	850.00
493.16	889.00
493.42	863.00
493.68	861.00
493.94	890.00
494.20	861.00
494.46	872.00
494.72	857.00
494.98	873.00
495.24	881.00
495.50	881.00
495.76	869.00
496.02	878.00
496.28	889.00
496.54	892.00
496.80	867.00
497.05	858.00
497.31	891.00
497.57	894.00
497.83	868.00
498.09	884.00
498.35	917.00
498.61	893.00
498.87	871.00
499.13	864.00
499.39	876.00
499.65	881.00
499.91	869.00
500.17	854.00
500.43	938.00
500.69	958.00
500.95	854.00
501.20	886.00
501.46	892.00
501.72	896.00
501.98	902.00
502.24	885.00
502.50	915.00
502.76	875.00
503.02	854.00
503.28	870.00
503.54	914.00
503.80	934.00
504.06	882.00
504.32	890.00
504.58	892.00
504.83	871.00
505.09	846.00
505.35	886.00
505.61	867.00
505.87	879.00
506.13	874.00
506.39	847.00
506.65	883.00
506.91	920.00
507.17	867.00
507.43	862.00
507.68	871.00
507.94	900.00
508.20	851.00
508.46	848.00
508.72	901.00
508.98	912.00
509.24	844.00
509.50	883.00
509.76	865.00
510.02	882.00
510.28	850.00
510.53	857.00
510.79	891.00
511.05	901.00
511.31	859.00
511.57	857.00
511.83	866.00
512.09	886.00
512.35	858.00
512.61	862.00
512.87	882.00
513.12	898.00
513.38	858.00
513.64	866.00
513.90	900.00
514.16	915.00
514.42	867.00
514.68	872.00
514.94	896.00
515.20	874.00
515.45	850.00
515.71	855.00
515.97	892.00
516.23	878.00
516.49	854.00
516.75	870.00
517.01	875.00
517.27	872.00
517.53	837.00
517.78	860.00
518.04	877.00
518.30	876.00
518.56	838.00
518.82	896.00
519.08	906.00
519.34	865.00
519.60	843.00
519.85	855.00
520.11	871.00
520.37	879.00
520.63	859.00
520.89	880.00
521.15	886.00
521.41	859.00
521.66	846.00
521.92	867.00
522.18	907.00
522.44	918.00
522.70	866.00
522.96	842.00
523.22	892.00
523.48	869.00
523.73	850.00
523.99	854.00
524.25	912.00
524.51	901.00
524.77	841.00
525.03	837.00
525.29	870.00
525.54	887.00
525.80	845.00
526.06	854.00
526.32	866.00
526.58	869.00
526.84	854.00
527.09	850.00
527.35	842.00
527.61	868.00
527.87	862.00
528.13	883.00
528.39	871.00
528.65	875.00
528.90	844.00
529.16	857.00
529.42	852.00
529.68	867.00
529.94	855.00
530.20	862.00
530.45	858.00
530.71	872.00
530.97	845.00
531.23	873.00
531.49	886.00
531.75	859.00
532.00	853.00
532.26	841.00
532.52	889.00
532.78	866.00
533.04	844.00
533.30	861.00
533.55	889.00
533.81	883.00
534.07	850.00
534.33	858.00
534.59	873.00
534.85	875.00
535.10	844.00
535.36	842.00
535.62	879.00
535.88	877.00
536.14	840.00
536.39	849.00
536.65	892.00
536.91	906.00
537.17	851.00
537.43	848.00
537.69	887.00
537.94	877.00
538.20	855.00
538.46	862.00
538.72	876.00
538.98	893.00
539.23	847.00
539.49	844.00
539.75	872.00
540.01	858.00
540.27	842.00
540.52	878.00
540.78	866.00
541.04	872.00
541.30	830.00
541.56	833.00
541.81	908.00
542.07	954.00
542.33	866.00
542.59	851.00
542.85	874.00
543.10	892.00
543.36	842.00
543.62	882.00
543.88	876.00
544.14	872.00
544.39	849.00
544.65	877.00
544.91	915.00
545.17	885.00
545.43	865.00
545.68	872.00
545.94	887.00
546.20	889.00
546.46	863.00
546.71	874.00
546.97	884.00
547.23	896.00
547.49	855.00
547.75	852.00
548.00	875.00
548.26	888.00
548.52	853.00
548.78	842.00
549.03	872.00
549.29	879.00
549.55	844.00
549.81	877.00
550.07	885.00
550.32	882.00
550.58	859.00
550.84	885.00
551.10	881.00
551.35	870.00
551.61	854.00
551.87	878.00
552.13	891.00
552.39	859.00
552.64	807.00
552.90	858.00
553.16	877.00
553.42	873.00
553.67	841.00
553.93	864.00
554.19	905.00
554.45	913.00
554.70	877.00
554.96	849.00
555.22	874.00
555.48	890.00
555.73	849.00
555.99	846.00
556.25	899.00
556.51	887.00
556.76	850.00
557.02	883.00
557.28	899.00
557.54	874.00
557.79	858.00
558.05	875.00
558.31	868.00
558.57	887.00
558.82	858.00
559.08	829.00
559.34	852.00
559.60	881.00
559.85	847.00
560.11	853.00
560.37	869.00
560.63	856.00
560.88	843.00
561.14	866.00
561.40	876.00
561.66	852.00
561.91	851.00
562.17	869.00
562.43	889.00
562.68	897.00
562.94	878.00
563.20	862.00
563.46	891.00
563.71	890.00
563.97	842.00
564.23	877.00
564.49	890.00
564.74	867.00
565.00	841.00
565.26	859.00
565.51	888.00
565.77	854.00
566.03	831.00
566.29	872.00
566.54	869.00
566.80	858.00
567.06	850.00
567.31	882.00
567.57	899.00
567.83	865.00
568.09	865.00
568.34	860.00
568.60	869.00
568.86	893.00
569.11	873.00
569.37	862.00
569.63	868.00
569.89	876.00
570.14	818.00
570.40	860.00
570.66	857.00
570.91	854.00
571.17	850.00
571.43	867.00
571.69	907.00
571.94	894.00
572.20	845.00
572.46	866.00
572.71	883.00
572.97	867.00
573.23	833.00
573.48	840.00
573.74	887.00
574.00	893.00
574.26	857.00
574.51	865.00
574.77	890.00
575.03	882.00
575.28	855.00
575.54	839.00
575.80	851.00
576.05	863.00
576.31	837.00
576.57	849.00
576.82	881.00
577.08	881.00
577.34	842.00
577.59	863.00
577.85	890.00
578.11	876.00
578.37	848.00
578.62	836.00
578.88	897.00
579.14	912.00
579.39	866.00
579.65	876.00
579.91	869.00
580.16	870.00
580.42	855.00
580.68	873.00
580.93	890.00
581.19	864.00
581.45	832.00
581.70	872.00
581.96	897.00
582.22	879.00
582.47	851.00
582.73	876.00
582.99	913.00
583.24	878.00
583.50	833.00
583.76	853.00
584.01	881.00
584.27	889.00
584.53	862.00
584.78	875.00
585.04	872.00
585.30	891.00
585.55	871.00
585.81	845.00
586.07	882.00
586.32	901.00
586.58	877.00
586.83	862.00
587.09	888.00
587.35	882.00
587.60	857.00
587.86	869.00
588.12	874.00
588.37	895.00
588.63	863.00
588.89	875.00
589.14	890.00
589.40	887.00
589.66	863.00
589.91	873.00
590.17	896.00
590.43	845.00
590.68	832.00
590.94	861.00
591.19	888.00
591.45	886.00
591.71	855.00
591.96	865.00
592.22	882.00
592.48	888.00
592.73	840.00
592.99	840.00
593.25	879.00
593.50	891.00
593.76	855.00
594.01	880.00
594.27	889.00
594.53	890.00
594.78	852.00
595.04	881.00
595.30	898.00
595.55	890.00
595.81	855.00
596.06	885.00
596.32	918.00
596.58	905.00
596.83	874.00
597.09	884.00
597.35	900.00
597.60	882.00
597.86	857.00
598.11	888.00
598.37	910.00
598.63	898.00
598.88	873.00
599.14	859.00
599.39	903.00
599.65	898.00
599.91	837.00
600.16	862.00
600.42	905.00
600.67	931.00
600.93	876.00
601.19	890.00
601.44	946.00
601.70	915.00
601.95	861.00
602.21	883.00
602.47	890.00
602.72	899.00
602.98	875.00
603.23	894.00
603.49	905.00
603.75	919.00
604.00	891.00
604.26	878.00
604.51	887.00
604.77	918.00
605.03	880.00
605.28	890.00
605.54	948.00
605.79	964.00
606.05	885.00
606.31	871.00
606.56	900.00
606.82	922.00
607.07	904.00
607.33	915.00
607.59	930.00
607.84	915.00
608.10	874.00
608.35	903.00
608.61	929.00
608.86	928.00
609.12	896.00
609.38	916.00
609.63	946.00
609.89	939.00
610.14	878.00
610.40	916.00
610.65	950.00
610.91	949.00
611.17	909.00
611.42	924.00
611.68	957.00
611.93	960.00
612.19	949.00
612.44	951.00
612.70	957.00
612.96	941.00
613.21	914.00
613.47	929.00
613.72	960.00
613.98	980.00
614.23	954.00
614.49	973.00
614.75	981.00
615.00	977.00
615.26	959.00
615.51	946.00
615.77	972.00
616.02	1006.00
616.28	981.00
616.53	987.00
616.79	1008.00
617.05	1000.00
617.30	976.00
617.56	1000.00
617.81	1043.00
618.07	1058.00
618.32	1041.00
618.58	1083.00
618.83	1099.00
619.09	1109.00
619.34	1061.00
619.60	1042.00
619.86	1078.00
620.11	1090.00
620.37	1071.00
620.62	1071.00
620.88	1102.00
621.13	1094.00
621.39	1066.00
621.64	1112.00
621.90	1179.00
622.15	1174.00
622.41	1162.00
622.66	1192.00
622.92	1213.00
623.18	1238.00
623.43	1217.00
623.69	1248.00
623.94	1288.00
624.20	1250.00
624.45	1235.00
624.71	1284.00
624.96	1308.00
625.22	1360.00
625.47	1298.00
625.73	1340.00
625.98	1382.00
626.24	1365.00
626.49	1346.00
626.75	1448.00
627.00	1584.00
627.26	1633.00
627.51	1552.00
627.77	1558.00
628.02	1620.00
628.28	1644.00
628.53	1601.00
628.79	1732.00
629.05	1923.00
629.30	1954.00
629.56	1908.00
629.81	1889.00
630.07	1901.00
630.32	1956.00
630.58	1989.00
630.83	2032.00
631.09	2156.00
631.34	2339.00
631.60	2452.00
631.85	2472.00
632.11	2483.00
632.36	2478.00
632.62	2354.00
632.87	2357.00
633.13	2490.00
633.38	2644.00
633.64	2740.00
633.89	2794.00
634.15	2726.00
634.40	2668.00
634.66	2674.00
634.91	2750.00
635.17	2757.00
635.42	2909.00
635.68	3251.00
635.93	3446.00
636.18	3398.00
636.44	3484.00
636.69	3526.00
636.95	3260.00
637.20	3012.00
637.46	2749.00
637.71	2804.00
637.97	3002.00
638.22	3073.00
638.48	2942.00
638.73	2944.00
638.99	3212.00
639.24	3471.00
639.50	3269.00
639.75	3101.00
640.01	2981.00
640.26	2978.00
640.52	2906.00
640.77	2665.00
641.03	2641.00
641.28	2620.00
641.54	2598.00
641.79	2662.00
642.04	2691.00
642.30	2557.00
642.55	2454.00
642.81	2419.00
643.06	2282.00
643.32	2194.00
643.57	2111.00
643.83	1931.00
644.08	1894.00
644.34	1879.00
644.59	1791.00
644.85	1714.00
645.10	1772.00
645.35	1825.00
645.61	1682.00
645.86	1566.00
646.12	1585.00
646.37	1570.00
646.63	1532.00
646.88	1394.00
647.14	1358.00
647.39	1395.00
647.65	1446.00
647.90	1372.00
648.15	1365.00
648.41	1358.00
648.66	1322.00
648.92	1270.00
649.17	1258.00
649.43	1206.00
649.68	1185.00
649.94	1165.00
650.19	1143.00
650.44	1149.00
650.70	1166.00
650.95	1123.00
651.21	1144.00
651.46	1171.00
651.72	1154.00
651.97	1085.00
652.23	1063.00
652.48	1074.00
652.73	1070.00
652.99	1018.00
653.24	1014.00
653.50	1050.00
653.75	1026.00
654.01	978.00
654.26	997.00
654.51	986.00
654.77	1018.00
655.02	986.00
655.28	957.00
655.53	961.00
655.79	987.00
656.04	952.00
656.29	936.00
656.55	934.00
656.80	942.00
657.06	891.00
657.31	918.00
657.56	934.00
657.82	925.00
658.07	904.00
658.33	927.00
658.58	934.00
658.84	959.00
659.09	911.00
659.34	922.00
659.60	918.00
659.85	913.00
660.11	891.00
660.36	899.00
660.61	889.00
660.87	882.00
661.12	872.00
661.38	886.00
661.63	889.00
661.88	900.00
662.14	900.00
662.39	890.00
662.65	924.00
662.90	941.00
663.15	868.00
663.41	885.00
663.66	938.00
663.92	930.00
664.17	883.00
664.42	901.00
664.68	911.00
664.93	906.00
665.19	884.00
665.44	871.00
665.69	866.00
665.95	893.00
666.20	865.00
666.45	898.00
666.71	900.00
666.96	897.00
667.22	837.00
667.47	861.00
667.72	873.00
667.98	895.00
668.23	857.00
668.49	901.00
668.74	909.00
668.99	906.00
669.25	862.00
669.50	859.00
669.75	890.00
670.01	881.00
670.26	834.00
670.52	861.00
670.77	884.00
671.02	898.00
671.28	869.00
671.53	883.00
671.78	902.00
672.04	905.00
672.29	871.00
672.54	865.00
672.80	871.00
673.05	871.00
673.31	852.00
673.56	899.00
673.81	917.00
674.07	899.00
674.32	862.00
674.57	868.00
674.83	885.00
675.08	887.00
675.33	862.00
675.59	862.00
675.84	884.00
676.09	874.00
676.35	878.00
676.60	870.00
676.86	873.00
677.11	910.00
677.36	878.00
677.62	889.00
677.87	913.00
678.12	919.00
678.38	861.00
678.63	858.00
678.88	890.00
679.14	895.00
679.39	836.00
679.64	853.00
679.90	862.00
680.15	890.00
680.40	876.00
680.66	867.00
680.91	880.00
681.16	891.00
681.42	867.00
681.67	852.00
681.92	872.00
682.18	905.00
682.43	862.00
682.68	846.00
682.94	872.00
683.19	861.00
683.44	841.00
683.70	871.00
683.95	885.00
684.20	882.00
684.46	853.00
684.71	870.00
684.96	875.00
685.22	901.00
685.47	870.00
685.72	870.00
685.98	886.00
686.23	834.00
686.48	828.00
686.74	866.00
686.99	912.00
687.24	882.00
687.50	847.00
687.75	864.00
688.00	869.00
688.25	886.00
688.51	861.00
688.76	870.00
689.01	875.00
689.27	865.00
689.52	828.00
689.77	855.00
690.03	850.00
690.28	871.00
690.53	855.00
690.79	869.00
691.04	890.00
691.29	886.00
691.54	822.00
691.80	856.00
692.05	878.00
692.30	878.00
692.56	850.00
692.81	865.00
693.06	867.00
693.32	853.00
693.57	849.00
693.82	871.00
694.07	876.00
694.33	890.00
694.58	832.00
694.83	862.00
695.09	870.00
695.34	901.00
695.59	869.00
695.84	861.00
696.10	889.00
696.35	901.00
696.60	841.00
696.86	850.00
697.11	897.00
697.36	890.00
697.61	849.00
697.87	855.00
698.12	856.00
698.37	860.00
698.63	861.00
698.88	855.00
699.13	877.00
699.38	872.00
699.64	834.00
699.89	851.00
700.14	854.00
700.39	866.00
700.65	856.00
700.90	882.00
701.15	868.00
701.40	886.00
701.66	841.00
701.91	856.00
702.16	856.00
702.42	861.00
702.67	829.00
702.92	854.00
703.17	861.00
703.43	868.00
703.68	842.00
703.93	878.00
704.18	906.00
704.44	873.00
704.69	846.00
704.94	866.00
705.19	856.00
705.45	870.00
705.70	844.00
705.95	838.00
706.20	866.00
706.46	880.00
706.71	858.00
706.96	864.00
707.21	877.00
707.47	868.00
707.72	860.00
707.97	884.00
708.22	876.00
708.48	886.00
708.73	838.00
708.98	843.00
709.23	864.00
709.49	875.00
709.74	859.00
709.99	858.00
710.24	872.00
710.50	864.00
710.75	871.00
711.00	896.00
711.25	874.00
711.50	842.00
711.76	824.00
712.01	846.00
712.26	860.00
712.51	871.00
712.77	853.00
713.02	869.00
713.27	857.00
713.52	867.00
713.78	854.00
714.03	863.00
714.28	838.00
714.53	874.00
714.78	853.00
715.04	882.00
715.29	892.00
715.54	886.00
715.79	844.00
716.05	859.00
716.30	876.00
716.55	894.00
716.80	860.00
717.05	898.00
717.31	897.00
717.56	898.00
717.81	856.00
718.06	850.00
718.31	849.00
718.57	862.00
718.82	850.00
719.07	882.00
719.32	864.00
719.57	875.00
719.83	849.00
720.08	875.00
720.33	864.00
720.58	846.00
720.83	824.00
721.09	896.00
721.34	882.00
721.59	886.00
721.84	847.00
722.09	840.00
722.35	864.00
722.60	868.00
722.85	829.00
723.10	861.00
723.35	851.00
723.61	873.00
723.86	873.00
724.11	854.00
724.36	847.00
724.61	859.00
724.87	860.00
725.12	862.00
725.37	864.00
725.62	836.00
725.87	835.00
726.12	848.00
726.38	847.00
726.63	864.00
726.88	837.00
727.13	859.00
727.38	857.00
727.64	849.00
727.89	842.00
728.14	860.00
728.39	850.00
728.64	878.00
728.89	858.00
729.15	864.00
729.40	881.00
729.65	886.00
729.90	842.00
730.15	867.00
730.40	887.00
730.66	873.00
730.91	843.00
731.16	877.00
731.41	877.00
731.66	887.00
731.91	835.00
732.17	858.00
732.42	887.00
732.67	876.00
732.92	839.00
733.17	876.00
733.42	872.00
733.68	870.00
733.93	845.00
734.18	856.00
734.43	839.00
734.68	858.00
734.93	864.00
735.18	875.00
735.44	892.00
735.69	895.00
735.94	812.00
736.19	835.00
736.44	854.00
736.69	908.00
736.95	862.00
737.20	859.00
737.45	881.00
737.70	881.00
737.95	875.00
738.20	883.00
738.45	902.00
738.70	874.00
738.96	858.00
739.21	882.00
739.46	878.00
739.71	893.00
739.96	861.00
740.21	875.00
740.46	941.00
740.72	928.00
740.97	853.00
741.22	885.00
741.47	870.00
741.72	889.00
741.97	834.00
742.22	860.00
742.47	884.00
742.73	868.00
742.98	834.00
743.23	843.00
743.48	850.00
743.73	887.00
743.98	867.00
744.23	860.00
744.48	868.00
744.74	865.00
744.99	825.00
745.24	856.00
745.49	873.00
745.74	889.00
745.99	842.00
746.24	851.00
746.49	852.00
746.74	842.00
747.00	849.00
747.25	871.00
747.50	840.00
747.75	840.00
748.00	825.00
748.25	857.00
748.50	865.00
748.75	899.00
749.00	883.00
749.26	891.00
749.51	858.00
749.76	883.00
750.01	849.00
750.26	875.00
750.51	890.00
750.76	881.00
751.01	846.00
751.26	869.00
751.51	878.00
751.77	895.00
752.02	853.00
752.27	847.00
752.52	858.00
752.77	874.00
753.02	848.00
753.27	864.00
753.52	862.00
753.77	848.00
754.02	846.00
754.27	851.00
754.52	844.00
754.78	861.00
755.03	853.00
755.28	877.00
755.53	886.00
755.78	873.00
756.03	831.00
756.28	865.00
756.53	873.00
756.78	880.00
757.03	846.00
757.28	870.00
757.53	874.00
757.79	857.00
758.04	835.00
758.29	890.00
758.54	887.00
758.79	888.00
759.04	833.00
759.29	830.00
759.54	843.00
759.79	873.00
760.04	859.00
760.29	856.00
760.54	867.00
760.79	867.00
761.04	834.00
761.29	852.00
761.55	837.00
761.80	859.00
762.05	836.00
762.30	863.00
762.55	859.00
762.80	881.00
763.05	874.00
763.30	870.00
763.55	892.00
763.80	892.00
764.05	831.00
764.30	871.00
764.55	882.00
764.80	865.00
765.05	840.00
765.30	881.00
765.55	869.00
765.80	874.00
766.05	833.00
766.30	859.00
766.56	867.00
766.81	873.00
767.06	860.00
767.31	874.00
767.56	865.00
767.81	867.00
768.06	844.00
768.31	863.00
768.56	883.00
768.81	917.00
769.06	857.00
769.31	871.00
769.56	867.00
769.81	886.00
770.06	828.00
770.31	834.00
770.56	858.00
770.81	860.00
771.06	839.00
771.31	861.00
771.56	860.00
771.81	881.00
772.06	829.00
772.31	873.00
772.56	868.00
772.81	870.00
773.06	847.00
773.31	881.00
773.56	874.00
773.81	845.00
774.06	817.00
774.31	860.00
774.56	863.00
774.81	885.00
775.06	866.00
775.31	891.00
775.56	885.00
775.81	856.00
776.06	828.00
776.31	860.00
776.56	869.00
776.82	867.00
777.07	835.00
777.32	845.00
777.57	874.00
777.82	902.00
778.07	837.00
778.32	838.00
778.57	858.00
778.82	892.00
779.07	855.00
779.32	857.00
779.57	844.00
779.82	856.00
780.07	850.00
780.32	889.00
780.56	873.00
780.81	898.00
781.06	833.00
781.31	849.00
781.56	892.00
781.81	879.00
782.06	835.00
782.31	864.00
782.56	873.00
782.81	897.00
783.06	852.00
783.31	867.00
783.56	876.00
783.81	903.00
784.06	860.00
784.31	864.00
784.56	820.00
784.81	891.00
785.06	865.00
785.31	881.00
785.56	848.00
785.81	850.00
786.06	828.00
786.31	860.00
786.56	852.00
786.81	864.00
787.06	851.00
787.31	871.00
787.56	862.00
787.81	846.00
788.06	832.00
788.31	868.00
788.56	846.00
788.81	871.00
789.06	851.00
789.31	862.00
789.56	854.00
789.81	864.00
790.06	844.00
790.31	873.00
790.56	847.00
790.80	869.00
791.05	842.00
791.30	838.00
791.55	853.00
791.80	857.00
792.05	842.00
792.30	850.00
792.55	858.00
792.80	869.00
793.05	848.00
793.30	850.00
793.55	863.00
793.80	872.00
794.05	842.00
794.30	870.00
794.55	857.00
794.80	869.00
795.05	839.00
795.30	851.00
795.54	847.00
795.79	891.00
796.04	841.00
796.29	866.00
796.54	857.00
796.79	880.00
797.04	858.00
797.29	861.00
797.54	885.00
797.79	884.00
798.04	873.00
798.29	854.00
798.54	849.00
798.79	860.00
799.04	838.00
799.29	866.00
799.53	855.00
799.78	865.00
800.03	852.00
800.28	852.00
800.53	854.00
800.78	890.00
801.03	844.00
801.28	855.00
801.53	849.00
801.78	878.00
802.03	846.00
802.28	873.00
802.52	879.00
802.77	880.00
803.02	880.00
803.27	873.00
803.52	840.00
803.77	881.00
804.02	867.00
804.27	872.00
804.52	880.00
804.77	890.00
805.02	856.00
805.27	884.00
805.51	873.00
805.76	873.00
806.01	841.00
806.26	863.00
806.51	867.00
806.76	901.00
807.01	860.00
807.26	846.00
807.51	881.00
807.76	841.00
808.00	833.00
808.25	877.00
808.50	890.00
808.75	856.00
809.00	830.00
809.25	853.00
809.50	860.00
809.75	888.00
810.00	874.00
810.24	847.00
810.49	814.00
810.74	855.00
810.99	864.00
811.24	869.00
811.49	857.00
811.74	876.00
811.99	825.00
812.24	872.00
812.48	853.00
812.73	847.00
812.98	828.00
813.23	857.00
813.48	860.00
813.73	873.00
813.98	828.00
814.23	849.00
814.47	849.00
814.72	848.00
814.97	824.00
815.22	864.00
815.47	833.00
815.72	858.00
815.97	820.00
816.22	841.00
816.46	869.00
816.71	873.00
816.96	848.00
817.21	851.00
817.46	854.00
817.71	870.00
817.96	847.00
818.20	853.00
818.45	848.00
818.70	870.00
818.95	838.00
819.20	856.00
819.45	850.00
819.70	848.00
819.94	832.00
820.19	852.00
820.44	841.00
820.69	887.00
820.94	857.00
821.19	869.00
821.44	905.00
821.68	915.00
821.93	862.00
822.18	880.00
822.43	886.00
822.68	900.00
822.93	846.00
823.17	871.00
823.42	866.00
823.67	849.00
823.92	829.00
824.17	880.00
824.42	876.00
824.67	880.00
824.91	853.00
825.16	856.00
825.41	851.00
825.66	867.00
825.91	828.00
826.16	841.00
826.40	852.00
826.65	874.00
826.90	845.00
827.15	858.00
827.40	841.00
827.65	876.00
827.89	817.00
828.14	850.00
828.39	873.00
828.64	870.00
828.89	826.00
829.13	842.00
829.38	837.00
829.63	876.00
829.88	853.00
830.13	839.00
830.38	847.00
830.62	873.00
830.87	841.00
831.12	870.00
831.37	884.00
831.62	902.00
831.86	852.00
832.11	848.00
832.36	844.00
832.61	869.00
832.86	853.00
833.10	868.00
833.35	860.00
833.60	888.00
833.85	863.00
834.10	866.00
834.35	882.00
834.59	900.00
834.84	842.00
835.09	867.00
835.34	842.00
835.59	870.00
835.83	853.00
836.08	870.00
836.33	858.00
836.58	867.00
836.83	846.00
837.07	849.00
837.32	858.00
837.57	848.00
837.82	846.00
838.06	874.00
838.31	876.00
838.56	903.00
838.81	846.00
839.06	881.00
839.30	854.00
839.55	872.00
839.80	841.00
840.05	869.00
840.30	890.00
840.54	886.00
840.79	821.00
841.04	868.00
841.29	881.00
841.53	873.00
841.78	840.00
842.03	842.00
842.28	833.00
842.53	851.00
842.77	860.00
843.02	868.00
843.27	861.00
843.52	851.00
843.76	837.00
844.01	863.00
844.26	852.00
844.51	880.00
844.75	845.00
845.00	849.00
845.25	870.00
845.50	869.00
845.75	857.00
845.99	876.00
846.24	865.00
846.49	876.00
846.74	838.00
846.98	853.00
847.23	864.00
847.48	878.00
847.73	838.00
847.97	853.00
848.22	888.00
848.47	880.00
848.72	850.00
848.96	841.00
849.21	858.00
849.46	852.00
849.71	843.00
849.95	857.00
850.20	857.00
850.45	876.00
850.70	827.00
850.94	866.00
851.19	859.00
851.44	859.00
851.69	825.00
851.93	862.00
852.18	882.00
852.43	884.00
852.68	862.00
852.92	871.00
853.17	896.00
853.42	881.00
853.66	862.00
853.91	889.00
854.16	868.00
854.41	898.00
854.65	847.00
854.90	864.00
855.15	850.00
855.40	863.00
855.64	851.00
855.89	849.00
856.14	849.00
856.39	847.00
856.63	833.00
856.88	845.00
857.13	845.00
857.37	851.00
857.62	825.00
857.87	826.00
858.12	851.00
858.36	891.00
858.61	820.00
858.86	854.00
859.10	871.00
859.35	874.00
859.60	852.00
859.85	826.00
860.09	836.00
860.34	884.00
860.59	864.00
860.83	856.00
861.08	860.00
861.33	869.00
861.58	850.00
861.82	841.00
862.07	857.00
862.32	866.00
862.56	834.00
862.81	832.00
863.06	865.00
863.30	865.00
863.55	859.00
863.80	876.00
864.05	870.00
864.29	845.00
864.54	857.00
864.79	864.00
865.03	867.00
865.28	893.00
865.53	861.00
865.77	847.00
866.02	863.00
866.27	885.00
866.51	860.00
866.76	844.00
867.01	851.00
867.26	858.00
867.50	823.00
867.75	826.00
868.00	859.00
868.24	876.00
868.49	850.00
868.74	857.00
868.98	861.00
869.23	876.00
869.48	865.00
869.72	848.00
869.97	863.00
870.22	888.00
870.46	861.00
870.71	852.00
870.96	857.00
871.20	878.00
871.45	824.00
871.70	841.00
871.94	888.00
872.19	893.00
872.44	868.00
872.68	856.00
872.93	864.00
873.18	888.00
873.42	835.00
873.67	860.00
873.92	895.00
874.16	866.00
874.41	851.00
874.66	880.00
874.90	874.00
875.15	884.00
875.40	875.00
875.64	890.00
875.89	873.00
876.14	864.00
876.38	848.00
876.63	853.00
876.88	871.00
877.12	861.00
877.37	829.00
877.62	863.00
877.86	867.00
878.11	881.00
878.36	845.00
878.60	865.00
878.85	859.00
879.09	869.00
879.34	856.00
879.59	879.00
879.83	883.00
880.08	907.00
880.33	873.00
880.57	868.00
880.82	876.00
881.07	881.00
881.31	850.00
881.56	869.00
881.80	849.00
882.05	863.00
882.30	828.00
882.54	848.00
882.79	890.00
883.04	897.00
883.28	867.00
883.53	849.00
883.77	874.00
884.02	874.00
884.27	830.00
884.51	830.00
884.76	844.00
885.01	890.00
885.25	843.00
885.50	878.00
885.74	851.00
885.99	886.00
886.24	841.00
886.48	859.00
886.73	873.00
886.98	890.00
887.22	863.00
887.47	864.00
887.71	877.00
887.96	884.00
888.21	859.00
888.45	851.00
888.70	838.00
888.94	885.00
889.19	832.00
889.44	846.00
889.68	869.00
889.93	885.00
890.17	843.00
890.42	851.00
890.67	872.00
890.91	944.00
891.16	846.00
891.40	840.00
891.65	843.00
891.90	873.00
892.14	825.00
892.39	856.00
892.63	863.00
892.88	892.00
893.13	852.00
893.37	842.00
893.62	852.00
893.86	881.00
894.11	848.00
894.36	854.00
894.60	846.00
894.85	851.00
895.09	842.00
895.34	880.00
895.59	878.00
895.83	877.00
896.08	837.00
896.32	832.00
896.57	857.00
896.81	857.00
897.06	845.00
897.31	846.00
897.55	880.00
897.80	850.00
898.04	802.00
898.29	835.00
898.53	861.00
898.78	874.00
899.03	868.00
899.27	865.00
899.52	891.00
899.76	890.00
900.01	845.00
900.25	864.00
900.50	866.00
900.75	881.00
900.99	842.00
901.24	916.00
901.48	874.00
901.73	871.00
901.97	833.00
902.22	856.00
902.47	873.00
902.71	860.00
902.96	830.00
903.20	846.00
903.45	867.00
903.69	868.00
903.94	856.00
904.18	832.00
904.43	839.00
904.68	862.00
904.92	830.00
905.17	857.00
905.41	873.00
905.66	882.00
905.90	899.00
906.15	865.00
906.39	863.00
906.64	857.00
906.88	830.00
907.13	831.00
907.38	860.00
907.62	882.00
907.87	838.00
908.11	869.00
908.36	858.00
908.60	853.00
908.85	804.00
909.09	846.00
909.34	853.00
909.58	886.00
909.83	852.00
910.07	859.00
910.32	920.00
910.56	916.00
910.81	840.00
911.06	860.00
911.30	875.00
911.55	860.00
911.79	821.00
912.04	832.00
912.28	844.00
912.53	869.00
912.77	845.00
913.02	855.00
913.26	860.00
913.51	855.00
913.75	839.00
914.00	838.00
914.24	863.00
914.49	886.00
914.73	845.00
914.98	879.00
915.22	909.00
915.47	883.00
915.71	837.00
915.96	862.00
916.20	870.00
916.45	849.00
916.69	836.00
916.94	846.00
917.18	857.00
917.43	875.00
917.67	836.00
917.92	834.00
918.16	862.00
918.41	871.00
918.65	842.00
918.90	828.00
919.14	825.00
919.39	870.00
919.63	836.00
919.88	846.00
920.12	871.00
920.37	874.00
920.61	832.00
920.86	867.00
921.10	877.00
921.35	855.00
921.59	845.00
921.84	860.00
922.08	861.00
922.33	880.00
922.57	822.00
922.82	834.00
923.06	846.00
923.31	884.00
923.55	832.00
923.80	852.00
924.04	846.00
924.29	865.00
924.53	843.00
924.78	860.00
925.02	841.00
925.27	865.00
925.51	848.00
925.76	876.00
926.00	865.00
926.25	863.00
926.49	839.00
926.73	864.00
926.98	862.00
927.22	885.00
927.47	848.00
927.71	849.00
927.96	869.00
928.20	867.00
928.45	858.00
928.69	889.00
928.94	891.00
929.18	873.00
929.43	858.00
929.67	855.00
929.91	860.00
930.16	884.00
930.40	839.00
930.65	825.00
930.89	861.00
931.14	896.00
931.38	863.00
931.63	877.00
931.87	884.00
932.12	871.00
932.36	817.00
932.60	848.00
932.85	870.00
933.09	852.00
933.34	833.00
933.58	881.00
933.83	866.00
934.07	874.00
934.32	840.00
934.56	873.00
934.80	891.00
935.05	896.00
935.29	858.00
935.54	860.00
935.78	859.00
936.03	881.00
936.27	833.00
936.52	841.00
936.76	863.00
937.00	871.00
937.25	838.00
937.49	879.00
937.74	883.00
937.98	886.00
938.23	844.00
938.47	838.00
938.71	856.00
938.96	867.00
939.20	826.00
939.45	825.00
939.69	847.00
939.94	870.00
940.18	828.00
940.42	849.00
940.67	852.00
940.91	852.00
941.16	841.00
941.40	842.00
941.64	844.00
941.89	870.00
942.13	832.00
942.38	862.00
942.62	928.00
942.87	901.00
943.11	863.00
943.35	860.00
943.60	872.00
943.84	897.00
944.09	858.00
944.33	882.00
944.57	891.00
944.82	881.00
945.06	829.00
945.31	861.00
945.55	857.00
945.79	885.00
946.04	846.00
946.28	848.00
946.53	864.00
946.77	868.00
947.01	815.00
947.26	884.00
947.50	862.00
947.75	873.00
947.99	867.00
948.23	856.00
948.48	847.00
948.72	871.00
948.97	845.00
949.21	849.00
949.45	875.00
949.70	896.00
949.94	848.00
950.18	866.00
950.43	865.00
950.67	876.00
950.92	840.00
951.16	835.00
951.40	851.00
951.65	862.00
951.89	856.00
952.13	865.00
952.38	878.00
952.62	872.00
952.87	828.00
953.11	866.00
953.35	889.00
953.60	876.00
953.84	798.00
954.08	816.00
954.33	865.00
954.57	870.00
954.82	845.00
955.06	849.00
955.30	850.00
955.55	863.00
955.79	858.00
956.03	866.00
956.28	854.00
956.52	873.00
956.76	846.00
957.01	872.00
957.25	868.00
957.50	874.00
957.74	828.00
957.98	825.00
958.23	867.00
958.47	866.00
958.71	860.00
958.96	876.00
959.20	890.00
959.44	882.00
959.69	854.00
959.93	861.00
960.17	858.00
960.42	880.00
960.66	862.00
960.90	871.00
961.15	868.00
961.39	880.00
961.64	840.00
961.88	837.00
962.12	881.00
962.37	886.00
962.61	846.00
962.85	841.00
963.10	875.00
963.34	878.00
963.58	842.00
963.83	858.00
964.07	877.00
964.31	888.00
964.56	865.00
964.80	841.00
965.04	859.00
965.29	861.00
965.53	840.00
965.77	830.00
966.02	820.00
966.26	844.00
966.50	832.00
966.74	866.00
966.99	890.00
967.23	868.00
967.47	848.00
967.72	860.00
967.96	860.00
968.20	869.00
968.45	840.00
968.69	856.00
968.93	852.00
969.18	863.00
969.42	857.00
969.66	861.00
969.91	846.00
970.15	881.00
970.39	845.00
970.64	866.00
970.88	871.00
971.12	878.00
971.36	859.00
971.61	838.00
971.85	859.00
972.09	852.00
972.34	849.00
972.58	867.00
972.82	871.00
973.07	900.00
973.31	826.00
973.55	850.00
973.79	875.00
974.04	902.00
974.28	878.00
974.52	861.00
974.77	859.00
975.01	880.00
975.25	838.00
975.50	864.00
975.74	874.00
975.98	870.00
976.22	845.00
976.47	848.00
976.71	862.00
976.95	856.00
977.20	884.00
977.44	870.00
977.68	869.00
977.92	898.00
978.17	854.00
978.41	842.00
978.65	885.00
978.90	864.00
979.14	859.00
979.38	866.00
979.62	873.00
979.87	856.00
980.11	826.00
980.35	859.00
980.59	870.00
980.84	888.00
981.08	853.00
981.32	843.00
981.57	876.00
981.81	882.00
982.05	858.00
982.29	843.00
982.54	852.00
982.78	866.00
983.02	835.00
983.26	859.00
983.51	886.00
983.75	893.00
983.99	836.00
984.23	875.00
984.48	873.00
984.72	880.00
984.96	833.00
985.20	846.00
985.45	896.00
985.69	881.00
985.93	856.00
986.17	878.00
986.42	877.00
986.66	865.00
986.90	818.00
987.14	836.00
987.39	850.00
987.63	841.00
987.87	836.00
988.11	836.00
988.36	851.00
988.60	860.00
988.84	867.00
989.08	845.00
989.33	878.00
989.57	878.00
989.81	832.00
990.05	832.00
990.30	851.00
990.54	851.00
990.78	826.00
991.02	838.00
991.27	867.00
991.51	867.00
991.75	842.00
991.99	873.00
992.23	854.00
992.48	841.00
992.72	815.00
992.96	852.00
993.20	852.00
993.45	864.00
993.69	874.00
993.93	835.00
994.17	873.00
994.41	862.00
994.66	836.00
994.90	855.00
995.14	875.00
995.38	876.00
995.63	858.00
995.87	863.00
996.11	890.00
996.35	876.00
996.59	825.00
996.84	821.00
997.08	861.00
997.32	871.00
997.56	851.00
997.80	831.00
998.05	850.00
998.29	849.00
998.53	822.00
998.77	844.00
999.01	877.00
999.26	872.00
999.50	847.00
999.74	826.00
999.98	873.00
1000.22	880.00
1000.47	835.00
1000.71	839.00
1000.95	871.00
1001.19	869.00
1001.43	837.00
1001.68	846.00
1001.92	860.00
1002.16	838.00
1002.40	817.00
1002.64	844.00
1002.89	868.00
1003.13	871.00
1003.37	862.00
1003.61	846.00
1003.85	853.00
1004.10	855.00
1004.34	848.00
1004.58	846.00
1004.82	868.00
1005.06	873.00
1005.30	855.00
1005.55	853.00
1005.79	887.00
1006.03	869.00
1006.27	845.00
1006.51	867.00
1006.76	860.00
1007.00	877.00
1007.24	832.00
1007.48	852.00
1007.72	874.00
1007.96	868.00
1008.21	847.00
1008.45	869.00
1008.69	862.00
1008.93	888.00
1009.17	859.00
1009.41	894.00
1009.66	896.00
1009.90	867.00
1010.14	842.00
1010.38	856.00
1010.62	877.00
1010.86	886.00
1011.10	841.00
1011.35	842.00
1011.59	837.00
1011.83	838.00
1012.07	823.00
1012.31	839.00
1012.55	861.00
1012.80	863.00
1013.04	870.00
1013.28	862.00
1013.52	860.00
1013.76	880.00
1014.00	835.00
1014.24	840.00
1014.49	872.00
1014.73	901.00
1014.97	880.00
1015.21	873.00
1015.45	882.00
1015.69	862.00
1015.93	851.00
1016.18	858.00
1016.42	897.00
1016.66	900.00
1016.90	844.00
1017.14	838.00
1017.38	853.00
1017.62	870.00
1017.87	846.00
1018.11	850.00
1018.35	865.00
1018.59	871.00
1018.83	817.00
1019.07	848.00
1019.31	870.00
1019.55	866.00
1019.80	850.00
1020.04	856.00
1020.28	862.00
1020.52	864.00
1020.76	839.00
1021.00	823.00
1021.24	842.00
1021.48	843.00
1021.73	853.00
1021.97	856.00
1022.21	858.00
1022.45	869.00
1022.69	820.00
1022.93	829.00
1023.17	857.00
1023.41	880.00
1023.65	852.00
1023.90	890.00
1024.14	882.00
1024.38	855.00
1024.62	836.00
1024.86	858.00
1025.10	866.00
1025.34	846.00
1025.58	808.00
1025.82	849.00
1026.07	886.00
1026.31	883.00
1026.55	836.00
1026.79	836.00
1027.03	863.00
1027.27	878.00
1027.51	828.00
1027.75	832.00
1027.99	849.00
1028.23	899.00
1028.47	876.00
1028.72	849.00
1028.96	861.00
1029.20	859.00
1029.44	862.00
1029.68	858.00
1029.92	856.00
1030.16	876.00
1030.40	821.00
1030.64	835.00
1030.88	853.00
1031.12	845.00
1031.37	831.00
1031.61	869.00
1031.85	882.00
1032.09	877.00
1032.33	855.00
1032.57	898.00
1032.81	864.00
1033.05	881.00
1033.29	846.00
1033.53	842.00
1033.77	896.00
1034.01	902.00
1034.25	870.00
1034.50	876.00
1034.74	884.00
1034.98	889.00
1035.22	866.00
1035.46	866.00
1035.70	900.00
1035.94	873.00
1036.18	861.00
1036.42	871.00
1036.66	847.00
1036.90	855.00
1037.14	820.00
1037.38	840.00
1037.62	870.00
1037.86	852.00
1038.10	850.00
1038.35	849.00
1038.59	875.00
1038.83	884.00
1039.07	860.00
1039.31	876.00
1039.55	844.00
1039.79	860.00
1040.03	832.00
1040.27	824.00
1040.51	865.00
1040.75	891.00
1040.99	856.00
1041.23	874.00
1041.47	860.00
1041.71	878.00
1041.95	853.00
1042.19	858.00
1042.43	898.00
1042.67	878.00
1042.91	844.00
1043.15	835.00
1043.39	897.00
1043.64	872.00
1043.88	840.00
1044.12	861.00
1044.36	916.00
1044.60	896.00
1044.84	866.00
1045.08	865.00
1045.32	872.00
1045.56	866.00
1045.80	849.00
1046.04	842.00
1046.28	892.00
1046.52	871.00
1046.76	825.00
1047.00	838.00
1047.24	874.00
1047.48	861.00
1047.72	850.00
1047.96	841.00
1048.20	875.00
1048.44	873.00
1048.68	851.00
1048.92	858.00
1049.16	860.00
1049.40	873.00
1049.64	844.00
1049.88	875.00
1050.12	898.00
1050.36	888.00
1050.60	858.00
1050.84	862.00
1051.08	867.00
1051.32	853.00
1051.56	856.00
1051.80	854.00
1052.04	876.00
1052.28	891.00
1052.52	850.00
1052.76	841.00
1053.00	874.00
1053.24	896.00
1053.48	855.00
1053.72	853.00
1053.96	868.00
1054.20	875.00
1054.44	860.00
1054.68	864.00
1054.92	873.00
1055.16	837.00
1055.40	838.00
1055.64	862.00
1055.88	883.00
1056.12	889.00
1056.36	818.00
1056.60	843.00
1056.84	894.00
1057.08	874.00
1057.32	846.00
1057.56	837.00
1057.80	846.00
1058.04	890.00
1058.28	830.00
1058.52	848.00
1058.76	888.00
1059.00	901.00
1059.24	832.00
1059.48	830.00
1059.72	882.00
1059.96	877.00
1060.20	864.00
1060.44	866.00
1060.68	886.00
1060.92	886.00
1061.16	838.00
1061.40	844.00
1061.64	852.00
1061.88	856.00
1062.11	838.00
1062.35	841.00
1062.59	859.00
1062.83	889.00
1063.07	856.00
1063.31	831.00
1063.55	866.00
1063.79	900.00
1064.03	858.00
1064.27	849.00
1064.51	879.00
1064.75	880.00
1064.99	847.00
1065.23	842.00
1065.47	842.00
1065.71	869.00
1065.95	854.00
1066.19	863.00
1066.43	881.00
1066.67	871.00
1066.91	868.00
1067.15	855.00
1067.38	851.00
1067.62	864.00
1067.86	836.00
1068.10	883.00
1068.34	907.00
1068.58	887.00
1068.82	849.00
1069.06	834.00
1069.30	874.00
1069.54	904.00
1069.78	882.00
1070.02	843.00
1070.26	877.00
1070.50	894.00
1070.74	842.00
1070.98	884.00
1071.21	894.00
1071.45	869.00
1071.69	843.00
1071.93	852.00
1072.17	859.00
1072.41	852.00
1072.65	862.00
1072.89	880.00
1073.13	858.00
1073.37	858.00
1073.61	833.00
1073.85	846.00
1074.09	852.00
1074.32	848.00
1074.56	837.00
1074.80	918.00
1075.04	1110.00
1075.28	954.00
1075.52	840.00
1075.76	865.00
1076.00	894.00
1076.24	875.00
1076.48	865.00
1076.72	875.00
1076.96	880.00
1077.19	878.00
1077.43	849.00
1077.67	866.00
1077.91	870.00
1078.15	861.00
1078.39	842.00
1078.63	836.00
1078.87	854.00
1079.11	877.00
1079.35	834.00
1079.58	834.00
1079.82	853.00
1080.06	836.00
1080.30	833.00
1080.54	869.00
1080.78	889.00
1081.02	866.00
1081.26	866.00
1081.50	872.00
1081.74	872.00
1081.97	875.00
1082.21	853.00
1082.45	872.00
1082.69	860.00
1082.93	855.00
1083.17	868.00
1083.41	860.00
1083.65	898.00
1083.88	904.00
1084.12	850.00
1084.36	863.00
1084.60	874.00
1084.84	884.00
1085.08	853.00
1085.32	867.00
1085.56	901.00
1085.80	880.00
1086.03	850.00
1086.27	845.00
1086.51	863.00
1086.75	884.00
1086.99	845.00
1087.23	835.00
1087.47	870.00
1087.70	868.00
1087.94	856.00
1088.18	874.00
1088.42	908.00
1088.66	872.00
1088.90	824.00
1089.14	844.00
1089.38	856.00
1089.61	883.00
1089.85	861.00
1090.09	825.00
1090.33	885.00
1090.57	886.00
1090.81	833.00
1091.05	856.00
1091.28	865.00
1091.52	880.00
1091.76	850.00
1092.00	846.00
1092.24	879.00
1092.48	880.00
1092.71	840.00
1092.95	882.00
1093.19	881.00
1093.43	873.00
1093.67	847.00
1093.91	859.00
1094.15	856.00
1094.38	876.00
1094.62	842.00
1094.86	833.00
1095.10	849.00
1095.34	877.00
1095.58	840.00
1095.81	843.00
1096.05	892.00
1096.29	893.00
1096.53	832.00
1096.77	852.00
1097.01	861.00
1097.24	875.00
1097.48	830.00
1097.72	858.00
1097.96	877.00
1098.20	892.00
1098.44	829.00
1098.67	814.00
1098.91	872.00
1099.15	868.00
1099.39	838.00
1099.63	850.00
1099.86	880.00
1100.10	861.00
1100.34	857.00
1100.58	843.00
1100.82	855.00
1101.06	868.00
1101.29	827.00
1101.53	843.00
1101.77	859.00
1102.01	858.00
1102.25	852.00
1102.48	853.00
1102.72	914.00
1102.96	874.00
1103.20	814.00
1103.44	839.00
1103.67	873.00
1103.91	878.00
1104.15	831.00
1104.39	858.00
1104.63	888.00
1104.86	853.00
1105.10	829.00
1105.34	863.00
1105.58	853.00
1105.82	862.00
1106.05	838.00
1106.29	860.00
1106.53	864.00
1106.77	903.00
1107.01	850.00
1107.24	872.00
1107.48	922.00
1107.72	877.00
1107.96	812.00
1108.20	850.00
1108.43	849.00
1108.67	859.00
1108.91	846.00
1109.15	835.00
1109.39	849.00
1109.62	866.00
1109.86	824.00
1110.10	847.00
1110.34	901.00
1110.57	909.00
1110.81	842.00
1111.05	851.00
1111.29	888.00
1111.53	910.00
1111.76	836.00
1112.00	876.00
1112.24	896.00
1112.48	870.00
1112.71	832.00
1112.95	842.00
1113.19	873.00
1113.43	861.00
1113.66	826.00
1113.90	862.00
1114.14	876.00
1114.38	873.00
1114.62	834.00
1114.85	865.00
1115.09	871.00
1115.33	909.00
1115.57	846.00
1115.80	828.00
1116.04	858.00
1116.28	876.00
1116.52	840.00
1116.75	850.00
1116.99	876.00
1117.23	878.00
1117.47	863.00
1117.70	880.00
1117.94	915.00
1118.18	860.00
1118.42	849.00
1118.65	873.00
1118.89	881.00
1119.13	872.00
1119.37	845.00
1119.60	867.00
1119.84	885.00
>>>>>End Processed Spectral Data<<<<<
