SpectraSuite Data File
++++++++++++++++++++++++++++++++++++
Date: Fri Dec 06 14:51:57 CET 2024
User: student
Dark Spectrum Present: No
Reference Spectrum Present: No
Number of Sampled Component Spectra: 1
Spectrometers: HR4C155
Integration Time (usec): 100000 (HR4C155)
Spectra Averaged: 1 (HR4C155)
Boxcar Smoothing: 0 (HR4C155)
Correct for Electrical Dark: No (HR4C155)
Strobe/Lamp Enabled: No (HR4C155)
Correct for Detector Non-linearity: No (HR4C155)
Correct for Stray Light: No (HR4C155)
Number of Pixels in Processed Spectrum: 3648
>>>>>Begin Processed Spectral Data<<<<<
195.39	707.00
195.66	707.00
195.93	707.00
196.20	674.00
196.46	701.00
196.73	827.00
197.00	837.00
197.27	821.00
197.54	855.00
197.81	844.00
198.08	824.00
198.35	861.00
198.61	875.00
198.88	850.00
199.15	848.00
199.42	856.00
199.69	872.00
199.96	848.00
200.23	853.00
200.49	846.00
200.76	884.00
201.03	856.00
201.30	862.00
201.57	897.00
201.84	901.00
202.11	868.00
202.38	897.00
202.64	904.00
202.91	904.00
203.18	858.00
203.45	914.00
203.72	988.00
203.99	926.00
204.25	917.00
204.52	890.00
204.79	907.00
205.06	919.00
205.33	865.00
205.60	895.00
205.87	932.00
206.13	921.00
206.40	890.00
206.67	875.00
206.94	908.00
207.21	902.00
207.48	912.00
207.75	894.00
208.01	937.00
208.28	909.00
208.55	856.00
208.82	892.00
209.09	900.00
209.36	926.00
209.62	891.00
209.89	927.00
210.16	928.00
210.43	950.00
210.70	883.00
210.97	888.00
211.23	921.00
211.50	935.00
211.77	893.00
212.04	893.00
212.31	904.00
212.58	908.00
212.84	882.00
213.11	881.00
213.38	854.00
213.65	912.00
213.92	877.00
214.18	876.00
214.45	925.00
214.72	922.00
214.99	877.00
215.26	888.00
215.53	885.00
215.79	908.00
216.06	891.00
216.33	909.00
216.60	874.00
216.87	915.00
217.13	841.00
217.40	873.00
217.67	905.00
217.94	934.00
218.21	877.00
218.48	905.00
218.74	956.00
219.01	914.00
219.28	847.00
219.55	865.00
219.82	918.00
220.08	933.00
220.35	886.00
220.62	889.00
220.89	933.00
221.16	942.00
221.42	907.00
221.69	904.00
221.96	910.00
222.23	928.00
222.50	911.00
222.76	929.00
223.03	891.00
223.30	892.00
223.57	875.00
223.84	867.00
224.10	880.00
224.37	893.00
224.64	880.00
224.91	896.00
225.18	928.00
225.44	933.00
225.71	889.00
225.98	922.00
226.25	923.00
226.51	943.00
226.78	886.00
227.05	872.00
227.32	908.00
227.59	909.00
227.85	885.00
228.12	891.00
228.39	933.00
228.66	941.00
228.92	920.00
229.19	904.00
229.46	927.00
229.73	903.00
230.00	868.00
230.26	892.00
230.53	913.00
230.80	887.00
231.07	849.00
231.33	872.00
231.60	903.00
231.87	914.00
232.14	891.00
232.41	915.00
232.67	918.00
232.94	933.00
233.21	881.00
233.48	891.00
233.74	901.00
234.01	892.00
234.28	855.00
234.55	893.00
234.81	900.00
235.08	944.00
235.35	888.00
235.62	890.00
235.88	883.00
236.15	913.00
236.42	889.00
236.69	890.00
236.95	920.00
237.22	904.00
237.49	900.00
237.76	890.00
238.02	913.00
238.29	939.00
238.56	884.00
238.83	873.00
239.09	897.00
239.36	924.00
239.63	872.00
239.90	885.00
240.16	928.00
240.43	966.00
240.70	897.00
240.97	894.00
241.23	911.00
241.50	915.00
241.77	892.00
242.04	878.00
242.30	866.00
242.57	877.00
242.84	883.00
243.11	899.00
243.37	874.00
243.64	940.00
243.91	898.00
244.18	878.00
244.44	854.00
244.71	880.00
244.98	885.00
245.24	888.00
245.51	916.00
245.78	918.00
246.05	849.00
246.31	881.00
246.58	922.00
246.85	905.00
247.12	873.00
247.38	899.00
247.65	898.00
247.92	919.00
248.18	873.00
248.45	887.00
248.72	887.00
248.99	902.00
249.25	876.00
249.52	896.00
249.79	911.00
250.05	897.00
250.32	878.00
250.59	874.00
250.86	876.00
251.12	881.00
251.39	866.00
251.66	904.00
251.92	922.00
252.19	934.00
252.46	864.00
252.73	918.00
252.99	926.00
253.26	927.00
253.53	887.00
253.79	893.00
254.06	899.00
254.33	907.00
254.60	858.00
254.86	864.00
255.13	926.00
255.40	924.00
255.66	882.00
255.93	900.00
256.20	913.00
256.46	924.00
256.73	881.00
257.00	891.00
257.26	907.00
257.53	905.00
257.80	910.00
258.07	937.00
258.33	972.00
258.60	939.00
258.87	876.00
259.13	892.00
259.40	878.00
259.67	920.00
259.93	890.00
260.20	900.00
260.47	920.00
260.73	876.00
261.00	867.00
261.27	908.00
261.53	950.00
261.80	932.00
262.07	861.00
262.34	882.00
262.60	893.00
262.87	901.00
263.14	886.00
263.40	916.00
263.67	886.00
263.94	887.00
264.20	864.00
264.47	852.00
264.74	871.00
265.00	886.00
265.27	862.00
265.54	873.00
265.80	923.00
266.07	925.00
266.34	871.00
266.60	888.00
266.87	910.00
267.14	908.00
267.40	865.00
267.67	862.00
267.94	891.00
268.20	882.00
268.47	857.00
268.74	872.00
269.00	889.00
269.27	875.00
269.54	848.00
269.80	873.00
270.07	917.00
270.33	885.00
270.60	873.00
270.87	901.00
271.13	888.00
271.40	901.00
271.67	837.00
271.93	849.00
272.20	897.00
272.47	902.00
272.73	842.00
273.00	872.00
273.27	884.00
273.53	938.00
273.80	885.00
274.07	871.00
274.33	886.00
274.60	907.00
274.86	875.00
275.13	881.00
275.40	883.00
275.66	917.00
275.93	874.00
276.20	862.00
276.46	877.00
276.73	881.00
277.00	863.00
277.26	901.00
277.53	912.00
277.79	892.00
278.06	880.00
278.33	914.00
278.59	896.00
278.86	874.00
279.13	857.00
279.39	882.00
279.66	914.00
279.93	913.00
280.19	869.00
280.46	897.00
280.72	889.00
280.99	907.00
281.26	857.00
281.52	867.00
281.79	902.00
282.05	899.00
282.32	884.00
282.59	889.00
282.85	916.00
283.12	902.00
283.39	875.00
283.65	915.00
283.92	915.00
284.18	911.00
284.45	885.00
284.72	892.00
284.98	897.00
285.25	885.00
285.51	878.00
285.78	871.00
286.05	882.00
286.31	895.00
286.58	850.00
286.84	867.00
287.11	870.00
287.38	908.00
287.64	909.00
287.91	894.00
288.17	900.00
288.44	902.00
288.71	857.00
288.97	890.00
289.24	919.00
289.50	896.00
289.77	900.00
290.04	866.00
290.30	867.00
290.57	916.00
290.83	865.00
291.10	881.00
291.37	901.00
291.63	889.00
291.90	887.00
292.16	895.00
292.43	924.00
292.70	887.00
292.96	842.00
293.23	868.00
293.49	892.00
293.76	908.00
294.02	874.00
294.29	891.00
294.56	912.00
294.82	902.00
295.09	881.00
295.35	874.00
295.62	909.00
295.89	920.00
296.15	872.00
296.42	861.00
296.68	878.00
296.95	888.00
297.21	892.00
297.48	877.00
297.75	894.00
298.01	914.00
298.28	886.00
298.54	898.00
298.81	915.00
299.07	894.00
299.34	854.00
299.61	887.00
299.87	928.00
300.14	900.00
300.40	900.00
300.67	884.00
300.93	894.00
301.20	931.00
301.46	873.00
301.73	880.00
302.00	898.00
302.26	890.00
302.53	892.00
302.79	876.00
303.06	900.00
303.32	940.00
303.59	868.00
303.85	851.00
304.12	879.00
304.39	912.00
304.65	884.00
304.92	883.00
305.18	893.00
305.45	913.00
305.71	884.00
305.98	891.00
306.24	881.00
306.51	881.00
306.77	872.00
307.04	899.00
307.31	931.00
307.57	917.00
307.84	855.00
308.10	882.00
308.37	875.00
308.63	877.00
308.90	858.00
309.16	878.00
309.43	911.00
309.69	891.00
309.96	872.00
310.22	872.00
310.49	887.00
310.76	917.00
311.02	866.00
311.29	877.00
311.55	888.00
311.82	888.00
312.08	885.00
312.35	900.00
312.61	925.00
312.88	919.00
313.14	874.00
313.41	850.00
313.67	857.00
313.94	901.00
314.20	877.00
314.47	887.00
314.73	878.00
315.00	872.00
315.26	844.00
315.53	900.00
315.79	918.00
316.06	915.00
316.32	882.00
316.59	883.00
316.85	877.00
317.12	900.00
317.39	849.00
317.65	883.00
317.92	888.00
318.18	885.00
318.45	866.00
318.71	913.00
318.98	910.00
319.24	880.00
319.51	884.00
319.77	868.00
320.04	864.00
320.30	881.00
320.57	853.00
320.83	853.00
321.10	854.00
321.36	881.00
321.63	860.00
321.89	857.00
322.16	925.00
322.42	915.00
322.69	869.00
322.95	865.00
323.22	896.00
323.48	913.00
323.75	864.00
324.01	872.00
324.28	900.00
324.54	915.00
324.80	887.00
325.07	890.00
325.33	908.00
325.60	881.00
325.86	853.00
326.13	872.00
326.39	884.00
326.66	877.00
326.92	833.00
327.19	872.00
327.45	917.00
327.72	925.00
327.98	869.00
328.25	866.00
328.51	892.00
328.78	904.00
329.04	863.00
329.31	881.00
329.57	895.00
329.84	899.00
330.10	868.00
330.37	883.00
330.63	912.00
330.89	933.00
331.16	880.00
331.42	890.00
331.69	896.00
331.95	893.00
332.22	890.00
332.48	906.00
332.75	876.00
333.01	874.00
333.28	866.00
333.54	877.00
333.81	893.00
334.07	901.00
334.34	889.00
334.60	881.00
334.86	917.00
335.13	935.00
335.39	899.00
335.66	876.00
335.92	916.00
336.19	907.00
336.45	838.00
336.72	868.00
336.98	861.00
337.24	888.00
337.51	857.00
337.77	869.00
338.04	892.00
338.30	886.00
338.57	829.00
338.83	861.00
339.10	885.00
339.36	919.00
339.63	880.00
339.89	860.00
340.15	875.00
340.42	909.00
340.68	882.00
340.95	879.00
341.21	881.00
341.48	884.00
341.74	830.00
342.00	843.00
342.27	892.00
342.53	907.00
342.80	859.00
343.06	870.00
343.33	883.00
343.59	889.00
343.85	865.00
344.12	880.00
344.38	927.00
344.65	904.00
344.91	868.00
345.18	862.00
345.44	877.00
345.70	879.00
345.97	851.00
346.23	861.00
346.50	887.00
346.76	879.00
347.03	882.00
347.29	891.00
347.55	879.00
347.82	868.00
348.08	853.00
348.35	857.00
348.61	931.00
348.87	917.00
349.14	853.00
349.40	861.00
349.67	894.00
349.93	887.00
350.20	882.00
350.46	885.00
350.72	910.00
350.99	888.00
351.25	879.00
351.52	865.00
351.78	881.00
352.04	899.00
352.31	884.00
352.57	869.00
352.84	873.00
353.10	900.00
353.36	877.00
353.63	864.00
353.89	883.00
354.16	911.00
354.42	892.00
354.68	889.00
354.95	912.00
355.21	908.00
355.48	874.00
355.74	891.00
356.00	913.00
356.27	923.00
356.53	867.00
356.80	871.00
357.06	918.00
357.32	917.00
357.59	886.00
357.85	889.00
358.11	923.00
358.38	901.00
358.64	861.00
358.91	866.00
359.17	885.00
359.43	925.00
359.70	914.00
359.96	893.00
360.22	922.00
360.49	887.00
360.75	871.00
361.02	859.00
361.28	864.00
361.54	887.00
361.81	866.00
362.07	885.00
362.33	881.00
362.60	875.00
362.86	864.00
363.13	886.00
363.39	919.00
363.65	919.00
363.92	842.00
364.18	836.00
364.44	889.00
364.71	905.00
364.97	863.00
365.24	878.00
365.50	893.00
365.76	910.00
366.03	867.00
366.29	881.00
366.55	913.00
366.82	908.00
367.08	843.00
367.34	874.00
367.61	906.00
367.87	901.00
368.13	882.00
368.40	888.00
368.66	941.00
368.93	905.00
369.19	852.00
369.45	850.00
369.72	871.00
369.98	878.00
370.24	870.00
370.51	877.00
370.77	908.00
371.03	900.00
371.30	890.00
371.56	905.00
371.82	921.00
372.09	909.00
372.35	877.00
372.61	877.00
372.88	880.00
373.14	899.00
373.40	877.00
373.67	864.00
373.93	892.00
374.19	898.00
374.46	854.00
374.72	869.00
374.98	889.00
375.25	902.00
375.51	895.00
375.77	912.00
376.04	906.00
376.30	900.00
376.56	858.00
376.83	876.00
377.09	900.00
377.35	900.00
377.62	881.00
377.88	869.00
378.14	871.00
378.41	905.00
378.67	880.00
378.93	869.00
379.20	897.00
379.46	866.00
379.72	845.00
379.99	877.00
380.25	868.00
380.51	867.00
380.77	866.00
381.04	874.00
381.30	906.00
381.56	926.00
381.83	876.00
382.09	870.00
382.35	871.00
382.62	919.00
382.88	884.00
383.14	875.00
383.41	881.00
383.67	872.00
383.93	879.00
384.20	879.00
384.46	898.00
384.72	937.00
384.98	865.00
385.25	883.00
385.51	916.00
385.77	877.00
386.04	861.00
386.30	850.00
386.56	891.00
386.82	935.00
387.09	864.00
387.35	899.00
387.61	962.00
387.88	921.00
388.14	894.00
388.40	875.00
388.67	870.00
388.93	900.00
389.19	888.00
389.45	870.00
389.72	882.00
389.98	920.00
390.24	886.00
390.51	860.00
390.77	910.00
391.03	918.00
391.29	864.00
391.56	877.00
391.82	896.00
392.08	937.00
392.35	884.00
392.61	873.00
392.87	899.00
393.13	916.00
393.40	890.00
393.66	882.00
393.92	893.00
394.18	898.00
394.45	841.00
394.71	852.00
394.97	899.00
395.24	885.00
395.50	862.00
395.76	905.00
396.02	909.00
396.29	891.00
396.55	828.00
396.81	826.00
397.07	861.00
397.34	882.00
397.60	855.00
397.86	856.00
398.12	872.00
398.39	927.00
398.65	892.00
398.91	870.00
399.17	895.00
399.44	869.00
399.70	835.00
399.96	859.00
400.22	872.00
400.49	914.00
400.75	872.00
401.01	849.00
401.27	862.00
401.54	909.00
401.80	867.00
402.06	867.00
402.32	903.00
402.59	882.00
402.85	864.00
403.11	866.00
403.37	860.00
403.64	901.00
403.90	871.00
404.16	885.00
404.42	883.00
404.69	877.00
404.95	880.00
405.21	844.00
405.47	871.00
405.74	911.00
406.00	880.00
406.26	860.00
406.52	883.00
406.79	902.00
407.05	869.00
407.31	874.00
407.57	877.00
407.83	898.00
408.10	830.00
408.36	848.00
408.62	871.00
408.88	873.00
409.15	843.00
409.41	818.00
409.67	832.00
409.93	893.00
410.20	877.00
410.46	867.00
410.72	863.00
410.98	897.00
411.24	875.00
411.51	888.00
411.77	886.00
412.03	904.00
412.29	885.00
412.55	891.00
412.82	877.00
413.08	884.00
413.34	884.00
413.60	891.00
413.87	895.00
414.13	901.00
414.39	846.00
414.65	878.00
414.91	889.00
415.18	853.00
415.44	834.00
415.70	860.00
415.96	875.00
416.22	896.00
416.49	869.00
416.75	876.00
417.01	898.00
417.27	882.00
417.53	866.00
417.80	886.00
418.06	917.00
418.32	921.00
418.58	857.00
418.84	860.00
419.11	891.00
419.37	894.00
419.63	867.00
419.89	858.00
420.15	888.00
420.42	879.00
420.68	858.00
420.94	880.00
421.20	877.00
421.46	890.00
421.72	878.00
421.99	881.00
422.25	897.00
422.51	889.00
422.77	874.00
423.03	897.00
423.30	885.00
423.56	900.00
423.82	915.00
424.08	908.00
424.34	900.00
424.60	900.00
424.87	864.00
425.13	854.00
425.39	871.00
425.65	878.00
425.91	858.00
426.18	890.00
426.44	902.00
426.70	868.00
426.96	830.00
427.22	836.00
427.48	882.00
427.75	869.00
428.01	828.00
428.27	870.00
428.53	899.00
428.79	869.00
429.05	850.00
429.32	868.00
429.58	901.00
429.84	857.00
430.10	868.00
430.36	885.00
430.62	919.00
430.88	888.00
431.15	875.00
431.41	897.00
431.67	891.00
431.93	876.00
432.19	839.00
432.45	860.00
432.72	874.00
432.98	901.00
433.24	896.00
433.50	979.00
433.76	893.00
434.02	887.00
434.28	854.00
434.55	867.00
434.81	891.00
435.07	910.00
435.33	833.00
435.59	858.00
435.85	889.00
436.11	900.00
436.38	840.00
436.64	854.00
436.90	892.00
437.16	867.00
437.42	856.00
437.68	877.00
437.94	888.00
438.21	878.00
438.47	886.00
438.73	905.00
438.99	898.00
439.25	900.00
439.51	849.00
439.77	865.00
440.03	879.00
440.30	891.00
440.56	870.00
440.82	889.00
441.08	919.00
441.34	899.00
441.60	846.00
441.86	876.00
442.12	886.00
442.39	892.00
442.65	867.00
442.91	872.00
443.17	880.00
443.43	906.00
443.69	892.00
443.95	853.00
444.21	874.00
444.47	889.00
444.74	848.00
445.00	883.00
445.26	881.00
445.52	878.00
445.78	863.00
446.04	882.00
446.30	922.00
446.56	900.00
446.82	859.00
447.09	866.00
447.35	893.00
447.61	890.00
447.87	875.00
448.13	878.00
448.39	930.00
448.65	922.00
448.91	865.00
449.17	852.00
449.43	856.00
449.70	872.00
449.96	845.00
450.22	862.00
450.48	889.00
450.74	929.00
451.00	878.00
451.26	863.00
451.52	880.00
451.78	889.00
452.04	859.00
452.31	883.00
452.57	896.00
452.83	877.00
453.09	849.00
453.35	861.00
453.61	887.00
453.87	899.00
454.13	882.00
454.39	878.00
454.65	933.00
454.91	932.00
455.17	847.00
455.44	875.00
455.70	897.00
455.96	889.00
456.22	860.00
456.48	849.00
456.74	874.00
457.00	855.00
457.26	807.00
457.52	877.00
457.78	887.00
458.04	902.00
458.30	862.00
458.56	867.00
458.82	876.00
459.09	863.00
459.35	827.00
459.61	850.00
459.87	893.00
460.13	918.00
460.39	856.00
460.65	853.00
460.91	882.00
461.17	847.00
461.43	833.00
461.69	848.00
461.95	900.00
462.21	860.00
462.47	855.00
462.73	901.00
462.99	907.00
463.26	891.00
463.52	832.00
463.78	849.00
464.04	852.00
464.30	862.00
464.56	839.00
464.82	860.00
465.08	898.00
465.34	912.00
465.60	874.00
465.86	867.00
466.12	882.00
466.38	870.00
466.64	857.00
466.90	878.00
467.16	893.00
467.42	890.00
467.68	851.00
467.94	870.00
468.20	911.00
468.46	893.00
468.72	853.00
468.98	867.00
469.25	887.00
469.51	868.00
469.77	877.00
470.03	869.00
470.29	897.00
470.55	889.00
470.81	869.00
471.07	869.00
471.33	881.00
471.59	916.00
471.85	872.00
472.11	877.00
472.37	893.00
472.63	870.00
472.89	884.00
473.15	868.00
473.41	879.00
473.67	869.00
473.93	822.00
474.19	849.00
474.45	848.00
474.71	851.00
474.97	846.00
475.23	854.00
475.49	871.00
475.75	856.00
476.01	861.00
476.27	901.00
476.53	919.00
476.79	911.00
477.05	874.00
477.31	858.00
477.57	895.00
477.83	889.00
478.09	845.00
478.35	877.00
478.61	912.00
478.87	877.00
479.13	833.00
479.39	879.00
479.65	907.00
479.91	901.00
480.17	862.00
480.43	883.00
480.69	870.00
480.95	902.00
481.21	853.00
481.47	856.00
481.73	876.00
481.99	870.00
482.25	846.00
482.51	838.00
482.77	884.00
483.03	894.00
483.29	870.00
483.55	850.00
483.81	888.00
484.07	888.00
484.33	863.00
484.59	854.00
484.85	902.00
485.11	889.00
485.37	860.00
485.63	857.00
485.89	888.00
486.15	875.00
486.41	861.00
486.67	861.00
486.93	899.00
487.19	882.00
487.45	866.00
487.71	859.00
487.97	897.00
488.23	895.00
488.49	840.00
488.75	848.00
489.01	880.00
489.27	919.00
489.53	863.00
489.79	835.00
490.05	854.00
490.31	890.00
490.57	881.00
490.83	914.00
491.08	889.00
491.34	863.00
491.60	851.00
491.86	885.00
492.12	911.00
492.38	919.00
492.64	861.00
492.90	853.00
493.16	885.00
493.42	848.00
493.68	842.00
493.94	876.00
494.20	864.00
494.46	878.00
494.72	857.00
494.98	835.00
495.24	845.00
495.50	882.00
495.76	874.00
496.02	877.00
496.28	911.00
496.54	916.00
496.80	870.00
497.05	845.00
497.31	885.00
497.57	874.00
497.83	859.00
498.09	883.00
498.35	901.00
498.61	891.00
498.87	867.00
499.13	861.00
499.39	880.00
499.65	889.00
499.91	880.00
500.17	859.00
500.43	918.00
500.69	951.00
500.95	855.00
501.20	883.00
501.46	912.00
501.72	905.00
501.98	880.00
502.24	895.00
502.50	922.00
502.76	882.00
503.02	870.00
503.28	876.00
503.54	933.00
503.80	926.00
504.06	877.00
504.32	880.00
504.58	912.00
504.83	884.00
505.09	850.00
505.35	873.00
505.61	860.00
505.87	871.00
506.13	874.00
506.39	858.00
506.65	910.00
506.91	947.00
507.17	877.00
507.43	863.00
507.68	862.00
507.94	893.00
508.20	850.00
508.46	848.00
508.72	907.00
508.98	910.00
509.24	861.00
509.50	896.00
509.76	868.00
510.02	881.00
510.28	842.00
510.53	860.00
510.79	898.00
511.05	896.00
511.31	864.00
511.57	871.00
511.83	885.00
512.09	891.00
512.35	859.00
512.61	871.00
512.87	878.00
513.12	893.00
513.38	835.00
513.64	866.00
513.90	908.00
514.16	907.00
514.42	872.00
514.68	869.00
514.94	893.00
515.20	906.00
515.45	855.00
515.71	846.00
515.97	865.00
516.23	883.00
516.49	862.00
516.75	860.00
517.01	888.00
517.27	861.00
517.53	845.00
517.78	873.00
518.04	887.00
518.30	871.00
518.56	836.00
518.82	893.00
519.08	905.00
519.34	852.00
519.60	846.00
519.85	857.00
520.11	875.00
520.37	885.00
520.63	874.00
520.89	890.00
521.15	882.00
521.41	865.00
521.66	859.00
521.92	868.00
522.18	898.00
522.44	902.00
522.70	863.00
522.96	845.00
523.22	871.00
523.48	871.00
523.73	862.00
523.99	861.00
524.25	906.00
524.51	888.00
524.77	859.00
525.03	866.00
525.29	892.00
525.54	898.00
525.80	854.00
526.06	869.00
526.32	876.00
526.58	877.00
526.84	855.00
527.09	852.00
527.35	865.00
527.61	878.00
527.87	865.00
528.13	896.00
528.39	894.00
528.65	882.00
528.90	830.00
529.16	848.00
529.42	861.00
529.68	859.00
529.94	841.00
530.20	868.00
530.45	840.00
530.71	861.00
530.97	828.00
531.23	850.00
531.49	873.00
531.75	873.00
532.00	861.00
532.26	862.00
532.52	898.00
532.78	879.00
533.04	848.00
533.30	870.00
533.55	885.00
533.81	890.00
534.07	840.00
534.33	858.00
534.59	890.00
534.85	876.00
535.10	844.00
535.36	847.00
535.62	878.00
535.88	886.00
536.14	839.00
536.39	840.00
536.65	883.00
536.91	894.00
537.17	850.00
537.43	868.00
537.69	907.00
537.94	878.00
538.20	847.00
538.46	868.00
538.72	894.00
538.98	899.00
539.23	851.00
539.49	824.00
539.75	900.00
540.01	902.00
540.27	869.00
540.52	907.00
540.78	900.00
541.04	892.00
541.30	844.00
541.56	837.00
541.81	891.00
542.07	934.00
542.33	880.00
542.59	864.00
542.85	868.00
543.10	889.00
543.36	837.00
543.62	865.00
543.88	876.00
544.14	875.00
544.39	856.00
544.65	872.00
544.91	906.00
545.17	899.00
545.43	854.00
545.68	851.00
545.94	878.00
546.20	893.00
546.46	852.00
546.71	862.00
546.97	877.00
547.23	892.00
547.49	872.00
547.75	865.00
548.00	898.00
548.26	903.00
548.52	853.00
548.78	842.00
549.03	870.00
549.29	871.00
549.55	844.00
549.81	852.00
550.07	896.00
550.32	891.00
550.58	855.00
550.84	883.00
551.10	871.00
551.35	884.00
551.61	859.00
551.87	892.00
552.13	889.00
552.39	867.00
552.64	827.00
552.90	862.00
553.16	876.00
553.42	874.00
553.67	840.00
553.93	841.00
554.19	886.00
554.45	907.00
554.70	867.00
554.96	846.00
555.22	864.00
555.48	905.00
555.73	852.00
555.99	859.00
556.25	880.00
556.51	867.00
556.76	863.00
557.02	881.00
557.28	917.00
557.54	888.00
557.79	854.00
558.05	882.00
558.31	872.00
558.57	900.00
558.82	850.00
559.08	827.00
559.34	843.00
559.60	887.00
559.85	857.00
560.11	850.00
560.37	877.00
560.63	873.00
560.88	850.00
561.14	855.00
561.40	888.00
561.66	855.00
561.91	842.00
562.17	856.00
562.43	870.00
562.68	898.00
562.94	868.00
563.20	873.00
563.46	884.00
563.71	906.00
563.97	858.00
564.23	881.00
564.49	882.00
564.74	875.00
565.00	839.00
565.26	880.00
565.51	878.00
565.77	868.00
566.03	847.00
566.29	876.00
566.54	858.00
566.80	861.00
567.06	865.00
567.31	872.00
567.57	897.00
567.83	872.00
568.09	859.00
568.34	849.00
568.60	874.00
568.86	907.00
569.11	887.00
569.37	849.00
569.63	885.00
569.89	891.00
570.14	830.00
570.40	853.00
570.66	869.00
570.91	880.00
571.17	857.00
571.43	893.00
571.69	910.00
571.94	901.00
572.20	858.00
572.46	853.00
572.71	893.00
572.97	884.00
573.23	851.00
573.48	856.00
573.74	867.00
574.00	870.00
574.26	842.00
574.51	855.00
574.77	893.00
575.03	877.00
575.28	867.00
575.54	847.00
575.80	863.00
576.05	878.00
576.31	849.00
576.57	843.00
576.82	873.00
577.08	880.00
577.34	867.00
577.59	862.00
577.85	903.00
578.11	872.00
578.37	857.00
578.62	867.00
578.88	902.00
579.14	911.00
579.39	881.00
579.65	890.00
579.91	880.00
580.16	890.00
580.42	850.00
580.68	853.00
580.93	880.00
581.19	863.00
581.45	844.00
581.70	869.00
581.96	881.00
582.22	902.00
582.47	868.00
582.73	874.00
582.99	901.00
583.24	881.00
583.50	824.00
583.76	855.00
584.01	880.00
584.27	903.00
584.53	858.00
584.78	874.00
585.04	868.00
585.30	890.00
585.55	869.00
585.81	856.00
586.07	891.00
586.32	897.00
586.58	872.00
586.83	862.00
587.09	900.00
587.35	893.00
587.60	852.00
587.86	853.00
588.12	859.00
588.37	884.00
588.63	851.00
588.89	871.00
589.14	894.00
589.40	890.00
589.66	865.00
589.91	868.00
590.17	899.00
590.43	846.00
590.68	842.00
590.94	877.00
591.19	882.00
591.45	886.00
591.71	852.00
591.96	880.00
592.22	901.00
592.48	892.00
592.73	838.00
592.99	858.00
593.25	888.00
593.50	883.00
593.76	860.00
594.01	873.00
594.27	896.00
594.53	862.00
594.78	860.00
595.04	872.00
595.30	893.00
595.55	882.00
595.81	841.00
596.06	886.00
596.32	906.00
596.58	893.00
596.83	874.00
597.09	877.00
597.35	883.00
597.60	876.00
597.86	839.00
598.11	865.00
598.37	908.00
598.63	913.00
598.88	861.00
599.14	869.00
599.39	911.00
599.65	906.00
599.91	846.00
600.16	867.00
600.42	884.00
600.67	912.00
600.93	854.00
601.19	885.00
601.44	930.00
601.70	912.00
601.95	877.00
602.21	889.00
602.47	902.00
602.72	892.00
602.98	874.00
603.23	888.00
603.49	920.00
603.75	933.00
604.00	891.00
604.26	888.00
604.51	885.00
604.77	927.00
605.03	872.00
605.28	874.00
605.54	923.00
605.79	936.00
606.05	865.00
606.31	877.00
606.56	916.00
606.82	924.00
607.07	900.00
607.33	931.00
607.59	945.00
607.84	893.00
608.10	862.00
608.35	880.00
608.61	917.00
608.86	919.00
609.12	911.00
609.38	935.00
609.63	949.00
609.89	924.00
610.14	866.00
610.40	899.00
610.65	923.00
610.91	919.00
611.17	914.00
611.42	909.00
611.68	951.00
611.93	966.00
612.19	937.00
612.44	943.00
612.70	972.00
612.96	935.00
613.21	901.00
613.47	910.00
613.72	938.00
613.98	976.00
614.23	941.00
614.49	968.00
614.75	971.00
615.00	947.00
615.26	931.00
615.51	930.00
615.77	974.00
616.02	1010.00
616.28	960.00
616.53	974.00
616.79	989.00
617.05	972.00
617.30	958.00
617.56	991.00
617.81	1029.00
618.07	1019.00
618.32	1001.00
618.58	1005.00
618.83	1031.00
619.09	1047.00
619.34	1009.00
619.60	1009.00
619.86	1046.00
620.11	1073.00
620.37	1034.00
620.62	1008.00
620.88	1051.00
621.13	1062.00
621.39	1052.00
621.64	1064.00
621.90	1080.00
622.15	1078.00
622.41	1069.00
622.66	1118.00
622.92	1162.00
623.18	1169.00
623.43	1127.00
623.69	1112.00
623.94	1124.00
624.20	1163.00
624.45	1176.00
624.71	1222.00
624.96	1233.00
625.22	1265.00
625.47	1254.00
625.73	1241.00
625.98	1232.00
626.24	1197.00
626.49	1200.00
626.75	1291.00
627.00	1350.00
627.26	1419.00
627.51	1395.00
627.77	1383.00
628.02	1414.00
628.28	1442.00
628.53	1447.00
628.79	1499.00
629.05	1528.00
629.30	1547.00
629.56	1570.00
629.81	1626.00
630.07	1637.00
630.32	1658.00
630.58	1656.00
630.83	1707.00
631.09	1701.00
631.34	1720.00
631.60	1748.00
631.85	1839.00
632.11	1942.00
632.36	1886.00
632.62	1855.00
632.87	1925.00
633.13	1952.00
633.38	2016.00
633.64	1968.00
633.89	2064.00
634.15	2086.00
634.40	2185.00
634.66	2277.00
634.91	2377.00
635.17	2464.00
635.42	2570.00
635.68	2593.00
635.93	2546.00
636.18	2570.00
636.44	2493.00
636.69	2491.00
636.95	2572.00
637.20	2551.00
637.46	2599.00
637.71	2703.00
637.97	2728.00
638.22	2775.00
638.48	2651.00
638.73	2491.00
638.99	2594.00
639.24	2731.00
639.50	2622.00
639.75	2483.00
640.01	2466.00
640.26	2600.00
640.52	2648.00
640.77	2388.00
641.03	2219.00
641.28	2255.00
641.54	2468.00
641.79	2568.00
642.04	2475.00
642.30	2349.00
642.55	2309.00
642.81	2172.00
643.06	2125.00
643.32	2129.00
643.57	2022.00
643.83	1877.00
644.08	1882.00
644.34	1966.00
644.59	1966.00
644.85	1899.00
645.10	1884.00
645.35	1904.00
645.61	1808.00
645.86	1669.00
646.12	1597.00
646.37	1675.00
646.63	1680.00
646.88	1529.00
647.14	1418.00
647.39	1349.00
647.65	1355.00
647.90	1280.00
648.15	1301.00
648.41	1371.00
648.66	1401.00
648.92	1301.00
649.17	1257.00
649.43	1215.00
649.68	1218.00
649.94	1201.00
650.19	1171.00
650.44	1194.00
650.70	1212.00
650.95	1134.00
651.21	1123.00
651.46	1115.00
651.72	1102.00
651.97	1077.00
652.23	1076.00
652.48	1079.00
652.73	1086.00
652.99	1041.00
653.24	1040.00
653.50	1013.00
653.75	1007.00
654.01	986.00
654.26	1000.00
654.51	1015.00
654.77	1015.00
655.02	975.00
655.28	965.00
655.53	963.00
655.79	963.00
656.04	961.00
656.29	953.00
656.55	956.00
656.80	977.00
657.06	926.00
657.31	935.00
657.56	959.00
657.82	933.00
658.07	905.00
658.33	924.00
658.58	932.00
658.84	952.00
659.09	916.00
659.34	916.00
659.60	932.00
659.85	927.00
660.11	907.00
660.36	899.00
660.61	896.00
660.87	876.00
661.12	872.00
661.38	900.00
661.63	914.00
661.88	921.00
662.14	900.00
662.39	899.00
662.65	918.00
662.90	944.00
663.15	871.00
663.41	900.00
663.66	941.00
663.92	941.00
664.17	878.00
664.42	884.00
664.68	916.00
664.93	905.00
665.19	861.00
665.44	874.00
665.69	876.00
665.95	894.00
666.20	848.00
666.45	888.00
666.71	886.00
666.96	901.00
667.22	844.00
667.47	859.00
667.72	879.00
667.98	864.00
668.23	840.00
668.49	902.00
668.74	893.00
668.99	890.00
669.25	865.00
669.50	864.00
669.75	894.00
670.01	899.00
670.26	839.00
670.52	846.00
670.77	901.00
671.02	876.00
671.28	847.00
671.53	876.00
671.78	901.00
672.04	907.00
672.29	870.00
672.54	868.00
672.80	857.00
673.05	869.00
673.31	851.00
673.56	875.00
673.81	928.00
674.07	895.00
674.32	868.00
674.57	863.00
674.83	886.00
675.08	888.00
675.33	849.00
675.59	866.00
675.84	904.00
676.09	881.00
676.35	859.00
676.60	863.00
676.86	869.00
677.11	912.00
677.36	877.00
677.62	881.00
677.87	918.00
678.12	929.00
678.38	870.00
678.63	876.00
678.88	896.00
679.14	898.00
679.39	821.00
679.64	867.00
679.90	861.00
680.15	879.00
680.40	883.00
680.66	867.00
680.91	884.00
681.16	873.00
681.42	848.00
681.67	856.00
681.92	888.00
682.18	917.00
682.43	849.00
682.68	840.00
682.94	866.00
683.19	838.00
683.44	841.00
683.70	873.00
683.95	872.00
684.20	876.00
684.46	872.00
684.71	878.00
684.96	880.00
685.22	889.00
685.47	856.00
685.72	875.00
685.98	897.00
686.23	845.00
686.48	855.00
686.74	896.00
686.99	909.00
687.24	875.00
687.50	828.00
687.75	855.00
688.00	860.00
688.25	886.00
688.51	869.00
688.76	885.00
689.01	859.00
689.27	865.00
689.52	833.00
689.77	856.00
690.03	847.00
690.28	875.00
690.53	858.00
690.79	877.00
691.04	885.00
691.29	879.00
691.54	836.00
691.80	862.00
692.05	879.00
692.30	891.00
692.56	857.00
692.81	868.00
693.06	860.00
693.32	868.00
693.57	858.00
693.82	879.00
694.07	899.00
694.33	877.00
694.58	835.00
694.83	883.00
695.09	881.00
695.34	902.00
695.59	872.00
695.84	877.00
696.10	901.00
696.35	889.00
696.60	828.00
696.86	859.00
697.11	891.00
697.36	889.00
697.61	858.00
697.87	882.00
698.12	875.00
698.37	876.00
698.63	870.00
698.88	860.00
699.13	882.00
699.38	898.00
699.64	848.00
699.89	858.00
700.14	854.00
700.39	869.00
700.65	862.00
700.90	889.00
701.15	875.00
701.40	886.00
701.66	847.00
701.91	848.00
702.16	858.00
702.42	861.00
702.67	826.00
702.92	845.00
703.17	848.00
703.43	863.00
703.68	875.00
703.93	897.00
704.18	901.00
704.44	871.00
704.69	844.00
704.94	868.00
705.19	863.00
705.45	900.00
705.70	866.00
705.95	853.00
706.20	856.00
706.46	879.00
706.71	865.00
706.96	875.00
707.21	876.00
707.47	873.00
707.72	869.00
707.97	877.00
708.22	892.00
708.48	883.00
708.73	852.00
708.98	842.00
709.23	869.00
709.49	863.00
709.74	849.00
709.99	844.00
710.24	869.00
710.50	869.00
710.75	853.00
711.00	883.00
711.25	883.00
711.50	860.00
711.76	823.00
712.01	844.00
712.26	844.00
712.51	868.00
712.77	837.00
713.02	853.00
713.27	870.00
713.52	868.00
713.78	853.00
714.03	861.00
714.28	866.00
714.53	881.00
714.78	833.00
715.04	883.00
715.29	885.00
715.54	890.00
715.79	833.00
716.05	873.00
716.30	886.00
716.55	892.00
716.80	872.00
717.05	874.00
717.31	899.00
717.56	897.00
717.81	868.00
718.06	829.00
718.31	829.00
718.57	865.00
718.82	850.00
719.07	890.00
719.32	870.00
719.57	889.00
719.83	850.00
720.08	874.00
720.33	864.00
720.58	848.00
720.83	837.00
721.09	887.00
721.34	878.00
721.59	886.00
721.84	843.00
722.09	861.00
722.35	888.00
722.60	863.00
722.85	840.00
723.10	869.00
723.35	873.00
723.61	874.00
723.86	868.00
724.11	885.00
724.36	866.00
724.61	860.00
724.87	863.00
725.12	843.00
725.37	846.00
725.62	851.00
725.87	844.00
726.12	846.00
726.38	844.00
726.63	877.00
726.88	844.00
727.13	878.00
727.38	866.00
727.64	880.00
727.89	844.00
728.14	845.00
728.39	849.00
728.64	872.00
728.89	860.00
729.15	886.00
729.40	875.00
729.65	891.00
729.90	839.00
730.15	870.00
730.40	879.00
730.66	869.00
730.91	845.00
731.16	871.00
731.41	882.00
731.66	894.00
731.91	861.00
732.17	888.00
732.42	895.00
732.67	864.00
732.92	826.00
733.17	859.00
733.42	861.00
733.68	880.00
733.93	846.00
734.18	855.00
734.43	852.00
734.68	870.00
734.93	852.00
735.18	851.00
735.44	866.00
735.69	882.00
735.94	829.00
736.19	857.00
736.44	853.00
736.69	898.00
736.95	847.00
737.20	870.00
737.45	873.00
737.70	874.00
737.95	865.00
738.20	881.00
738.45	884.00
738.70	877.00
738.96	862.00
739.21	876.00
739.46	897.00
739.71	893.00
739.96	863.00
740.21	886.00
740.46	931.00
740.72	907.00
740.97	856.00
741.22	883.00
741.47	857.00
741.72	861.00
741.97	832.00
742.22	873.00
742.47	901.00
742.73	872.00
742.98	833.00
743.23	842.00
743.48	852.00
743.73	887.00
743.98	877.00
744.23	871.00
744.48	881.00
744.74	863.00
744.99	843.00
745.24	883.00
745.49	865.00
745.74	879.00
745.99	853.00
746.24	870.00
746.49	842.00
746.74	838.00
747.00	855.00
747.25	867.00
747.50	848.00
747.75	857.00
748.00	822.00
748.25	848.00
748.50	864.00
748.75	895.00
749.00	877.00
749.26	897.00
749.51	881.00
749.76	888.00
750.01	844.00
750.26	874.00
750.51	896.00
750.76	892.00
751.01	850.00
751.26	873.00
751.51	887.00
751.77	880.00
752.02	864.00
752.27	848.00
752.52	858.00
752.77	891.00
753.02	865.00
753.27	870.00
753.52	858.00
753.77	863.00
754.02	850.00
754.27	869.00
754.52	843.00
754.78	865.00
755.03	855.00
755.28	882.00
755.53	872.00
755.78	870.00
756.03	852.00
756.28	873.00
756.53	867.00
756.78	876.00
757.03	840.00
757.28	868.00
757.53	880.00
757.79	835.00
758.04	829.00
758.29	886.00
758.54	884.00
758.79	875.00
759.04	838.00
759.29	823.00
759.54	838.00
759.79	867.00
760.04	862.00
760.29	862.00
760.54	864.00
760.79	861.00
761.04	853.00
761.29	865.00
761.55	848.00
761.80	866.00
762.05	831.00
762.30	866.00
762.55	852.00
762.80	885.00
763.05	883.00
763.30	886.00
763.55	903.00
763.80	886.00
764.05	833.00
764.30	857.00
764.55	886.00
764.80	873.00
765.05	840.00
765.30	859.00
765.55	856.00
765.80	868.00
766.05	830.00
766.30	852.00
766.56	868.00
766.81	870.00
767.06	861.00
767.31	875.00
767.56	869.00
767.81	866.00
768.06	852.00
768.31	871.00
768.56	856.00
768.81	902.00
769.06	841.00
769.31	859.00
769.56	863.00
769.81	880.00
770.06	836.00
770.31	859.00
770.56	859.00
770.81	861.00
771.06	840.00
771.31	872.00
771.56	874.00
771.81	863.00
772.06	829.00
772.31	868.00
772.56	871.00
772.81	882.00
773.06	833.00
773.31	869.00
773.56	878.00
773.81	851.00
774.06	834.00
774.31	867.00
774.56	871.00
774.81	887.00
775.06	859.00
775.31	879.00
775.56	870.00
775.81	851.00
776.06	841.00
776.31	854.00
776.56	865.00
776.82	877.00
777.07	825.00
777.32	850.00
777.57	856.00
777.82	894.00
778.07	844.00
778.32	849.00
778.57	859.00
778.82	897.00
779.07	857.00
779.32	866.00
779.57	848.00
779.82	866.00
780.07	838.00
780.32	862.00
780.56	870.00
780.81	901.00
781.06	821.00
781.31	852.00
781.56	892.00
781.81	880.00
782.06	836.00
782.31	866.00
782.56	870.00
782.81	884.00
783.06	854.00
783.31	862.00
783.56	875.00
783.81	884.00
784.06	871.00
784.31	883.00
784.56	857.00
784.81	901.00
785.06	869.00
785.31	879.00
785.56	845.00
785.81	856.00
786.06	829.00
786.31	852.00
786.56	858.00
786.81	879.00
787.06	881.00
787.31	873.00
787.56	862.00
787.81	849.00
788.06	827.00
788.31	872.00
788.56	855.00
788.81	872.00
789.06	856.00
789.31	871.00
789.56	874.00
789.81	878.00
790.06	853.00
790.31	906.00
790.56	865.00
790.80	858.00
791.05	828.00
791.30	845.00
791.55	861.00
791.80	860.00
792.05	854.00
792.30	855.00
792.55	846.00
792.80	858.00
793.05	844.00
793.30	846.00
793.55	863.00
793.80	889.00
794.05	848.00
794.30	862.00
794.55	861.00
794.80	881.00
795.05	828.00
795.30	848.00
795.54	841.00
795.79	882.00
796.04	840.00
796.29	869.00
796.54	868.00
796.79	892.00
797.04	852.00
797.29	867.00
797.54	892.00
797.79	888.00
798.04	854.00
798.29	846.00
798.54	857.00
798.79	853.00
799.04	821.00
799.29	862.00
799.53	867.00
799.78	851.00
800.03	839.00
800.28	844.00
800.53	843.00
800.78	899.00
801.03	853.00
801.28	863.00
801.53	851.00
801.78	874.00
802.03	855.00
802.28	862.00
802.52	883.00
802.77	908.00
803.02	870.00
803.27	884.00
803.52	847.00
803.77	876.00
804.02	875.00
804.27	883.00
804.52	857.00
804.77	889.00
805.02	877.00
805.27	874.00
805.51	857.00
805.76	906.00
806.01	861.00
806.26	851.00
806.51	850.00
806.76	876.00
807.01	868.00
807.26	834.00
807.51	865.00
807.76	846.00
808.00	860.00
808.25	876.00
808.50	895.00
808.75	865.00
809.00	822.00
809.25	837.00
809.50	849.00
809.75	883.00
810.00	857.00
810.24	848.00
810.49	828.00
810.74	854.00
810.99	861.00
811.24	868.00
811.49	880.00
811.74	892.00
811.99	822.00
812.24	859.00
812.48	843.00
812.73	857.00
812.98	817.00
813.23	829.00
813.48	855.00
813.73	865.00
813.98	822.00
814.23	852.00
814.47	846.00
814.72	849.00
814.97	844.00
815.22	875.00
815.47	860.00
815.72	878.00
815.97	841.00
816.22	862.00
816.46	870.00
816.71	882.00
816.96	852.00
817.21	858.00
817.46	849.00
817.71	884.00
817.96	850.00
818.20	849.00
818.45	844.00
818.70	849.00
818.95	826.00
819.20	849.00
819.45	842.00
819.70	858.00
819.94	824.00
820.19	852.00
820.44	846.00
820.69	893.00
820.94	859.00
821.19	871.00
821.44	917.00
821.68	933.00
821.93	863.00
822.18	877.00
822.43	895.00
822.68	884.00
822.93	850.00
823.17	865.00
823.42	858.00
823.67	858.00
823.92	824.00
824.17	854.00
824.42	863.00
824.67	875.00
824.91	846.00
825.16	857.00
825.41	864.00
825.66	871.00
825.91	822.00
826.16	852.00
826.40	871.00
826.65	870.00
826.90	832.00
827.15	846.00
827.40	870.00
827.65	905.00
827.89	826.00
828.14	858.00
828.39	879.00
828.64	872.00
828.89	830.00
829.13	841.00
829.38	846.00
829.63	852.00
829.88	826.00
830.13	829.00
830.38	848.00
830.62	877.00
830.87	845.00
831.12	870.00
831.37	903.00
831.62	901.00
831.86	844.00
832.11	856.00
832.36	837.00
832.61	872.00
832.86	857.00
833.10	865.00
833.35	871.00
833.60	899.00
833.85	859.00
834.10	883.00
834.35	888.00
834.59	896.00
834.84	860.00
835.09	895.00
835.34	861.00
835.59	859.00
835.83	854.00
836.08	876.00
836.33	876.00
836.58	882.00
836.83	848.00
837.07	874.00
837.32	871.00
837.57	860.00
837.82	849.00
838.06	870.00
838.31	886.00
838.56	901.00
838.81	835.00
839.06	861.00
839.30	856.00
839.55	879.00
839.80	843.00
840.05	863.00
840.30	877.00
840.54	896.00
840.79	845.00
841.04	858.00
841.29	891.00
841.53	888.00
841.78	849.00
842.03	835.00
842.28	848.00
842.53	859.00
842.77	851.00
843.02	866.00
843.27	867.00
843.52	877.00
843.76	838.00
844.01	854.00
844.26	850.00
844.51	873.00
844.75	846.00
845.00	838.00
845.25	857.00
845.50	870.00
845.75	844.00
845.99	863.00
846.24	874.00
846.49	893.00
846.74	841.00
846.98	847.00
847.23	852.00
847.48	870.00
847.73	838.00
847.97	856.00
848.22	893.00
848.47	864.00
848.72	855.00
848.96	857.00
849.21	864.00
849.46	850.00
849.71	832.00
849.95	852.00
850.20	853.00
850.45	871.00
850.70	819.00
850.94	846.00
851.19	856.00
851.44	859.00
851.69	812.00
851.93	848.00
852.18	881.00
852.43	874.00
852.68	846.00
852.92	876.00
853.17	914.00
853.42	898.00
853.66	880.00
853.91	887.00
854.16	855.00
854.41	895.00
854.65	843.00
854.90	847.00
855.15	867.00
855.40	869.00
855.64	854.00
855.89	858.00
856.14	854.00
856.39	849.00
856.63	829.00
856.88	843.00
857.13	859.00
857.37	849.00
857.62	823.00
857.87	839.00
858.12	858.00
858.36	886.00
858.61	809.00
858.86	840.00
859.10	877.00
859.35	884.00
859.60	845.00
859.85	838.00
860.09	835.00
860.34	871.00
860.59	856.00
860.83	871.00
861.08	869.00
861.33	888.00
861.58	833.00
861.82	842.00
862.07	860.00
862.32	868.00
862.56	855.00
862.81	864.00
863.06	862.00
863.30	863.00
863.55	852.00
863.80	869.00
864.05	871.00
864.29	862.00
864.54	857.00
864.79	860.00
865.03	855.00
865.28	876.00
865.53	868.00
865.77	830.00
866.02	856.00
866.27	875.00
866.51	851.00
866.76	847.00
867.01	839.00
867.26	870.00
867.50	830.00
867.75	842.00
868.00	859.00
868.24	887.00
868.49	857.00
868.74	858.00
868.98	859.00
869.23	874.00
869.48	860.00
869.72	840.00
869.97	859.00
870.22	883.00
870.46	857.00
870.71	869.00
870.96	865.00
871.20	870.00
871.45	826.00
871.70	866.00
871.94	902.00
872.19	877.00
872.44	862.00
872.68	847.00
872.93	857.00
873.18	867.00
873.42	837.00
873.67	865.00
873.92	870.00
874.16	845.00
874.41	848.00
874.66	884.00
874.90	877.00
875.15	890.00
875.40	862.00
875.64	866.00
875.89	871.00
876.14	870.00
876.38	849.00
876.63	860.00
876.88	868.00
877.12	854.00
877.37	829.00
877.62	878.00
877.86	861.00
878.11	872.00
878.36	841.00
878.60	860.00
878.85	849.00
879.09	881.00
879.34	853.00
879.59	861.00
879.83	883.00
880.08	901.00
880.33	854.00
880.57	880.00
880.82	872.00
881.07	876.00
881.31	866.00
881.56	870.00
881.80	850.00
882.05	867.00
882.30	832.00
882.54	854.00
882.79	888.00
883.04	917.00
883.28	866.00
883.53	855.00
883.77	869.00
884.02	880.00
884.27	840.00
884.51	857.00
884.76	836.00
885.01	877.00
885.25	813.00
885.50	845.00
885.74	854.00
885.99	881.00
886.24	848.00
886.48	840.00
886.73	854.00
886.98	893.00
887.22	858.00
887.47	866.00
887.71	876.00
887.96	874.00
888.21	870.00
888.45	848.00
888.70	859.00
888.94	888.00
889.19	838.00
889.44	844.00
889.68	854.00
889.93	897.00
890.17	846.00
890.42	850.00
890.67	891.00
890.91	953.00
891.16	854.00
891.40	852.00
891.65	849.00
891.90	882.00
892.14	826.00
892.39	856.00
892.63	870.00
892.88	897.00
893.13	862.00
893.37	839.00
893.62	856.00
893.86	888.00
894.11	857.00
894.36	876.00
894.60	852.00
894.85	870.00
895.09	853.00
895.34	889.00
895.59	867.00
895.83	866.00
896.08	838.00
896.32	823.00
896.57	850.00
896.81	858.00
897.06	825.00
897.31	868.00
897.55	878.00
897.80	862.00
898.04	827.00
898.29	848.00
898.53	869.00
898.78	885.00
899.03	861.00
899.27	850.00
899.52	876.00
899.76	892.00
900.01	857.00
900.25	876.00
900.50	862.00
900.75	877.00
900.99	853.00
901.24	930.00
901.48	870.00
901.73	869.00
901.97	836.00
902.22	852.00
902.47	876.00
902.71	873.00
902.96	853.00
903.20	867.00
903.45	883.00
903.69	871.00
903.94	862.00
904.18	839.00
904.43	865.00
904.68	875.00
904.92	842.00
905.17	859.00
905.41	877.00
905.66	891.00
905.90	874.00
906.15	862.00
906.39	875.00
906.64	893.00
906.88	847.00
907.13	872.00
907.38	888.00
907.62	896.00
907.87	839.00
908.11	861.00
908.36	848.00
908.60	862.00
908.85	799.00
909.09	844.00
909.34	851.00
909.58	861.00
909.83	835.00
910.07	850.00
910.32	897.00
910.56	914.00
910.81	852.00
911.06	884.00
911.30	892.00
911.55	871.00
911.79	845.00
912.04	855.00
912.28	843.00
912.53	869.00
912.77	879.00
913.02	868.00
913.26	850.00
913.51	873.00
913.75	850.00
914.00	843.00
914.24	842.00
914.49	869.00
914.73	858.00
914.98	881.00
915.22	908.00
915.47	875.00
915.71	848.00
915.96	867.00
916.20	862.00
916.45	845.00
916.69	839.00
916.94	862.00
917.18	868.00
917.43	883.00
917.67	836.00
917.92	826.00
918.16	866.00
918.41	872.00
918.65	828.00
918.90	829.00
919.14	830.00
919.39	866.00
919.63	840.00
919.88	836.00
920.12	868.00
920.37	864.00
920.61	840.00
920.86	871.00
921.10	863.00
921.35	849.00
921.59	839.00
921.84	867.00
922.08	865.00
922.33	886.00
922.57	833.00
922.82	833.00
923.06	865.00
923.31	880.00
923.55	813.00
923.80	859.00
924.04	869.00
924.29	877.00
924.53	845.00
924.78	853.00
925.02	854.00
925.27	869.00
925.51	864.00
925.76	865.00
926.00	861.00
926.25	859.00
926.49	827.00
926.73	854.00
926.98	856.00
927.22	895.00
927.47	864.00
927.71	842.00
927.96	874.00
928.20	863.00
928.45	850.00
928.69	900.00
928.94	876.00
929.18	858.00
929.43	865.00
929.67	859.00
929.91	859.00
930.16	876.00
930.40	837.00
930.65	838.00
930.89	861.00
931.14	892.00
931.38	864.00
931.63	874.00
931.87	885.00
932.12	886.00
932.36	838.00
932.60	856.00
932.85	884.00
933.09	850.00
933.34	809.00
933.58	863.00
933.83	863.00
934.07	892.00
934.32	852.00
934.56	879.00
934.80	890.00
935.05	914.00
935.29	860.00
935.54	872.00
935.78	878.00
936.03	872.00
936.27	823.00
936.52	849.00
936.76	867.00
937.00	857.00
937.25	842.00
937.49	866.00
937.74	892.00
937.98	882.00
938.23	832.00
938.47	850.00
938.71	860.00
938.96	862.00
939.20	840.00
939.45	853.00
939.69	861.00
939.94	892.00
940.18	831.00
940.42	847.00
940.67	880.00
940.91	866.00
941.16	844.00
941.40	850.00
941.64	865.00
941.89	885.00
942.13	830.00
942.38	861.00
942.62	937.00
942.87	901.00
943.11	862.00
943.35	836.00
943.60	856.00
943.84	897.00
944.09	848.00
944.33	876.00
944.57	908.00
944.82	872.00
945.06	837.00
945.31	865.00
945.55	853.00
945.79	876.00
946.04	854.00
946.28	861.00
946.53	870.00
946.77	870.00
947.01	834.00
947.26	881.00
947.50	871.00
947.75	877.00
947.99	850.00
948.23	876.00
948.48	870.00
948.72	868.00
948.97	862.00
949.21	858.00
949.45	856.00
949.70	890.00
949.94	873.00
950.18	891.00
950.43	860.00
950.67	877.00
950.92	860.00
951.16	859.00
951.40	845.00
951.65	859.00
951.89	854.00
952.13	869.00
952.38	886.00
952.62	890.00
952.87	851.00
953.11	890.00
953.35	893.00
953.60	894.00
953.84	824.00
954.08	823.00
954.33	852.00
954.57	880.00
954.82	868.00
955.06	852.00
955.30	867.00
955.55	872.00
955.79	850.00
956.03	849.00
956.28	853.00
956.52	867.00
956.76	857.00
957.01	875.00
957.25	862.00
957.50	868.00
957.74	851.00
957.98	854.00
958.23	867.00
958.47	855.00
958.71	855.00
958.96	891.00
959.20	898.00
959.44	860.00
959.69	829.00
959.93	873.00
960.17	878.00
960.42	874.00
960.66	871.00
960.90	872.00
961.15	862.00
961.39	862.00
961.64	818.00
961.88	834.00
962.12	885.00
962.37	887.00
962.61	862.00
962.85	842.00
963.10	877.00
963.34	872.00
963.58	828.00
963.83	863.00
964.07	868.00
964.31	865.00
964.56	863.00
964.80	855.00
965.04	859.00
965.29	878.00
965.53	843.00
965.77	839.00
966.02	817.00
966.26	857.00
966.50	837.00
966.74	853.00
966.99	876.00
967.23	888.00
967.47	863.00
967.72	860.00
967.96	862.00
968.20	866.00
968.45	832.00
968.69	821.00
968.93	852.00
969.18	868.00
969.42	869.00
969.66	849.00
969.91	861.00
970.15	885.00
970.39	836.00
970.64	852.00
970.88	889.00
971.12	896.00
971.36	861.00
971.61	859.00
971.85	859.00
972.09	869.00
972.34	850.00
972.58	859.00
972.82	880.00
973.07	902.00
973.31	837.00
973.55	856.00
973.79	876.00
974.04	907.00
974.28	866.00
974.52	877.00
974.77	860.00
975.01	890.00
975.25	850.00
975.50	852.00
975.74	887.00
975.98	881.00
976.22	850.00
976.47	835.00
976.71	848.00
976.95	869.00
977.20	871.00
977.44	858.00
977.68	854.00
977.92	872.00
978.17	840.00
978.41	843.00
978.65	877.00
978.90	870.00
979.14	865.00
979.38	866.00
979.62	864.00
979.87	864.00
980.11	829.00
980.35	855.00
980.59	866.00
980.84	864.00
981.08	844.00
981.32	837.00
981.57	883.00
981.81	870.00
982.05	848.00
982.29	842.00
982.54	859.00
982.78	880.00
983.02	846.00
983.26	872.00
983.51	899.00
983.75	879.00
983.99	840.00
984.23	874.00
984.48	869.00
984.72	880.00
984.96	831.00
985.20	858.00
985.45	911.00
985.69	877.00
985.93	859.00
986.17	873.00
986.42	860.00
986.66	863.00
986.90	829.00
987.14	831.00
987.39	861.00
987.63	852.00
987.87	826.00
988.11	844.00
988.36	867.00
988.60	876.00
988.84	853.00
989.08	837.00
989.33	880.00
989.57	886.00
989.81	840.00
990.05	826.00
990.30	847.00
990.54	848.00
990.78	841.00
991.02	833.00
991.27	844.00
991.51	852.00
991.75	844.00
991.99	869.00
992.23	846.00
992.48	843.00
992.72	829.00
992.96	821.00
993.20	850.00
993.45	881.00
993.69	880.00
993.93	838.00
994.17	867.00
994.41	879.00
994.66	840.00
994.90	870.00
995.14	898.00
995.38	883.00
995.63	854.00
995.87	848.00
996.11	886.00
996.35	878.00
996.59	837.00
996.84	857.00
997.08	873.00
997.32	850.00
997.56	836.00
997.80	848.00
998.05	858.00
998.29	841.00
998.53	837.00
998.77	871.00
999.01	880.00
999.26	874.00
999.50	843.00
999.74	831.00
999.98	855.00
1000.22	861.00
1000.47	826.00
1000.71	832.00
1000.95	858.00
1001.19	861.00
1001.43	840.00
1001.68	873.00
1001.92	873.00
1002.16	853.00
1002.40	832.00
1002.64	858.00
1002.89	876.00
1003.13	876.00
1003.37	859.00
1003.61	831.00
1003.85	851.00
1004.10	861.00
1004.34	837.00
1004.58	837.00
1004.82	884.00
1005.06	871.00
1005.30	838.00
1005.55	838.00
1005.79	870.00
1006.03	872.00
1006.27	853.00
1006.51	850.00
1006.76	855.00
1007.00	872.00
1007.24	853.00
1007.48	859.00
1007.72	876.00
1007.96	869.00
1008.21	863.00
1008.45	872.00
1008.69	864.00
1008.93	875.00
1009.17	855.00
1009.41	869.00
1009.66	882.00
1009.90	874.00
1010.14	836.00
1010.38	845.00
1010.62	892.00
1010.86	904.00
1011.10	870.00
1011.35	849.00
1011.59	853.00
1011.83	846.00
1012.07	826.00
1012.31	865.00
1012.55	865.00
1012.80	885.00
1013.04	877.00
1013.28	857.00
1013.52	864.00
1013.76	884.00
1014.00	835.00
1014.24	840.00
1014.49	883.00
1014.73	920.00
1014.97	882.00
1015.21	868.00
1015.45	878.00
1015.69	867.00
1015.93	858.00
1016.18	857.00
1016.42	884.00
1016.66	906.00
1016.90	835.00
1017.14	838.00
1017.38	851.00
1017.62	859.00
1017.87	842.00
1018.11	850.00
1018.35	858.00
1018.59	859.00
1018.83	823.00
1019.07	861.00
1019.31	887.00
1019.55	888.00
1019.80	849.00
1020.04	860.00
1020.28	864.00
1020.52	885.00
1020.76	827.00
1021.00	819.00
1021.24	845.00
1021.48	844.00
1021.73	863.00
1021.97	866.00
1022.21	842.00
1022.45	892.00
1022.69	850.00
1022.93	850.00
1023.17	868.00
1023.41	896.00
1023.65	858.00
1023.90	865.00
1024.14	881.00
1024.38	852.00
1024.62	813.00
1024.86	843.00
1025.10	862.00
1025.34	859.00
1025.58	822.00
1025.82	844.00
1026.07	899.00
1026.31	883.00
1026.55	850.00
1026.79	836.00
1027.03	858.00
1027.27	868.00
1027.51	812.00
1027.75	811.00
1027.99	855.00
1028.23	905.00
1028.47	858.00
1028.72	840.00
1028.96	864.00
1029.20	872.00
1029.44	862.00
1029.68	861.00
1029.92	859.00
1030.16	877.00
1030.40	829.00
1030.64	849.00
1030.88	843.00
1031.12	848.00
1031.37	844.00
1031.61	853.00
1031.85	872.00
1032.09	880.00
1032.33	843.00
1032.57	883.00
1032.81	866.00
1033.05	882.00
1033.29	876.00
1033.53	845.00
1033.77	909.00
1034.01	897.00
1034.25	880.00
1034.50	868.00
1034.74	850.00
1034.98	873.00
1035.22	853.00
1035.46	874.00
1035.70	898.00
1035.94	891.00
1036.18	851.00
1036.42	848.00
1036.66	843.00
1036.90	856.00
1037.14	818.00
1037.38	835.00
1037.62	868.00
1037.86	863.00
1038.10	852.00
1038.35	849.00
1038.59	879.00
1038.83	876.00
1039.07	862.00
1039.31	874.00
1039.55	852.00
1039.79	854.00
1040.03	826.00
1040.27	841.00
1040.51	874.00
1040.75	885.00
1040.99	866.00
1041.23	869.00
1041.47	869.00
1041.71	904.00
1041.95	852.00
1042.19	865.00
1042.43	891.00
1042.67	888.00
1042.91	855.00
1043.15	845.00
1043.39	898.00
1043.64	886.00
1043.88	853.00
1044.12	863.00
1044.36	911.00
1044.60	881.00
1044.84	857.00
1045.08	855.00
1045.32	860.00
1045.56	869.00
1045.80	845.00
1046.04	855.00
1046.28	874.00
1046.52	876.00
1046.76	821.00
1047.00	822.00
1047.24	873.00
1047.48	849.00
1047.72	842.00
1047.96	847.00
1048.20	883.00
1048.44	875.00
1048.68	846.00
1048.92	864.00
1049.16	880.00
1049.40	891.00
1049.64	872.00
1049.88	874.00
1050.12	891.00
1050.36	888.00
1050.60	849.00
1050.84	857.00
1051.08	857.00
1051.32	849.00
1051.56	864.00
1051.80	861.00
1052.04	884.00
1052.28	902.00
1052.52	856.00
1052.76	850.00
1053.00	874.00
1053.24	870.00
1053.48	828.00
1053.72	845.00
1053.96	866.00
1054.20	874.00
1054.44	869.00
1054.68	876.00
1054.92	885.00
1055.16	843.00
1055.40	842.00
1055.64	867.00
1055.88	876.00
1056.12	893.00
1056.36	819.00
1056.60	835.00
1056.84	877.00
1057.08	861.00
1057.32	846.00
1057.56	838.00
1057.80	858.00
1058.04	874.00
1058.28	846.00
1058.52	851.00
1058.76	875.00
1059.00	905.00
1059.24	830.00
1059.48	835.00
1059.72	868.00
1059.96	870.00
1060.20	867.00
1060.44	873.00
1060.68	881.00
1060.92	874.00
1061.16	823.00
1061.40	838.00
1061.64	875.00
1061.88	874.00
1062.11	843.00
1062.35	840.00
1062.59	862.00
1062.83	896.00
1063.07	852.00
1063.31	829.00
1063.55	866.00
1063.79	896.00
1064.03	856.00
1064.27	844.00
1064.51	873.00
1064.75	869.00
1064.99	861.00
1065.23	849.00
1065.47	859.00
1065.71	890.00
1065.95	852.00
1066.19	853.00
1066.43	884.00
1066.67	884.00
1066.91	866.00
1067.15	869.00
1067.38	864.00
1067.62	869.00
1067.86	842.00
1068.10	857.00
1068.34	906.00
1068.58	891.00
1068.82	842.00
1069.06	823.00
1069.30	870.00
1069.54	887.00
1069.78	868.00
1070.02	864.00
1070.26	886.00
1070.50	905.00
1070.74	857.00
1070.98	877.00
1071.21	883.00
1071.45	882.00
1071.69	854.00
1071.93	858.00
1072.17	879.00
1072.41	885.00
1072.65	872.00
1072.89	878.00
1073.13	878.00
1073.37	858.00
1073.61	845.00
1073.85	869.00
1074.09	849.00
1074.32	862.00
1074.56	846.00
1074.80	921.00
1075.04	1108.00
1075.28	965.00
1075.52	854.00
1075.76	861.00
1076.00	899.00
1076.24	886.00
1076.48	864.00
1076.72	880.00
1076.96	898.00
1077.19	871.00
1077.43	828.00
1077.67	860.00
1077.91	869.00
1078.15	852.00
1078.39	860.00
1078.63	853.00
1078.87	871.00
1079.11	873.00
1079.35	833.00
1079.58	830.00
1079.82	859.00
1080.06	849.00
1080.30	834.00
1080.54	866.00
1080.78	881.00
1081.02	854.00
1081.26	850.00
1081.50	873.00
1081.74	875.00
1081.97	891.00
1082.21	851.00
1082.45	859.00
1082.69	865.00
1082.93	846.00
1083.17	852.00
1083.41	857.00
1083.65	921.00
1083.88	907.00
1084.12	863.00
1084.36	853.00
1084.60	878.00
1084.84	869.00
1085.08	838.00
1085.32	863.00
1085.56	905.00
1085.80	886.00
1086.03	859.00
1086.27	824.00
1086.51	864.00
1086.75	889.00
1086.99	838.00
1087.23	835.00
1087.47	869.00
1087.70	857.00
1087.94	842.00
1088.18	878.00
1088.42	919.00
1088.66	880.00
1088.90	834.00
1089.14	866.00
1089.38	863.00
1089.61	893.00
1089.85	858.00
1090.09	851.00
1090.33	887.00
1090.57	873.00
1090.81	814.00
1091.05	834.00
1091.28	861.00
1091.52	869.00
1091.76	830.00
1092.00	846.00
1092.24	881.00
1092.48	900.00
1092.71	839.00
1092.95	870.00
1093.19	886.00
1093.43	879.00
1093.67	841.00
1093.91	849.00
1094.15	867.00
1094.38	880.00
1094.62	833.00
1094.86	832.00
1095.10	845.00
1095.34	859.00
1095.58	837.00
1095.81	865.00
1096.05	894.00
1096.29	908.00
1096.53	823.00
1096.77	837.00
1097.01	852.00
1097.24	887.00
1097.48	846.00
1097.72	865.00
1097.96	881.00
1098.20	878.00
1098.44	837.00
1098.67	820.00
1098.91	875.00
1099.15	875.00
1099.39	841.00
1099.63	867.00
1099.86	866.00
1100.10	874.00
1100.34	859.00
1100.58	866.00
1100.82	878.00
1101.06	852.00
1101.29	827.00
1101.53	869.00
1101.77	876.00
1102.01	847.00
1102.25	854.00
1102.48	867.00
1102.72	906.00
1102.96	868.00
1103.20	819.00
1103.44	835.00
1103.67	853.00
1103.91	876.00
1104.15	832.00
1104.39	853.00
1104.63	872.00
1104.86	855.00
1105.10	824.00
1105.34	857.00
1105.58	852.00
1105.82	863.00
1106.05	845.00
1106.29	861.00
1106.53	868.00
1106.77	901.00
1107.01	838.00
1107.24	870.00
1107.48	921.00
1107.72	872.00
1107.96	836.00
1108.20	862.00
1108.43	864.00
1108.67	867.00
1108.91	846.00
1109.15	842.00
1109.39	859.00
1109.62	864.00
1109.86	840.00
1110.10	853.00
1110.34	900.00
1110.57	905.00
1110.81	865.00
1111.05	863.00
1111.29	889.00
1111.53	906.00
1111.76	857.00
1112.00	873.00
1112.24	899.00
1112.48	880.00
1112.71	840.00
1112.95	838.00
1113.19	868.00
1113.43	858.00
1113.66	823.00
1113.90	860.00
1114.14	877.00
1114.38	875.00
1114.62	835.00
1114.85	867.00
1115.09	875.00
1115.33	912.00
1115.57	862.00
1115.80	843.00
1116.04	855.00
1116.28	854.00
1116.52	848.00
1116.75	862.00
1116.99	891.00
1117.23	907.00
1117.47	858.00
1117.70	887.00
1117.94	940.00
1118.18	882.00
1118.42	851.00
1118.65	856.00
1118.89	891.00
1119.13	874.00
1119.37	838.00
1119.60	850.00
1119.84	888.00
>>>>>End Processed Spectral Data<<<<<
