SpectraSuite Data File
++++++++++++++++++++++++++++++++++++
Date: Fri Dec 06 14:49:19 CET 2024
User: student
Dark Spectrum Present: No
Reference Spectrum Present: No
Number of Sampled Component Spectra: 1
Spectrometers: HR4C155
Integration Time (usec): 100000 (HR4C155)
Spectra Averaged: 1 (HR4C155)
Boxcar Smoothing: 0 (HR4C155)
Correct for Electrical Dark: No (HR4C155)
Strobe/Lamp Enabled: No (HR4C155)
Correct for Detector Non-linearity: No (HR4C155)
Correct for Stray Light: No (HR4C155)
Number of Pixels in Processed Spectrum: 3648
>>>>>Begin Processed Spectral Data<<<<<
195.39	715.00
195.66	715.00
195.93	715.00
196.20	684.00
196.46	721.00
196.73	806.00
197.00	819.00
197.27	829.00
197.54	854.00
197.81	860.00
198.08	842.00
198.35	865.00
198.61	884.00
198.88	870.00
199.15	842.00
199.42	847.00
199.69	870.00
199.96	865.00
200.23	867.00
200.49	862.00
200.76	882.00
201.03	863.00
201.30	859.00
201.57	901.00
201.84	907.00
202.11	874.00
202.38	905.00
202.64	904.00
202.91	916.00
203.18	852.00
203.45	921.00
203.72	989.00
203.99	905.00
204.25	907.00
204.52	890.00
204.79	914.00
205.06	920.00
205.33	863.00
205.60	882.00
205.87	918.00
206.13	932.00
206.40	898.00
206.67	878.00
206.94	918.00
207.21	908.00
207.48	883.00
207.75	860.00
208.01	916.00
208.28	901.00
208.55	875.00
208.82	894.00
209.09	894.00
209.36	916.00
209.62	880.00
209.89	902.00
210.16	915.00
210.43	948.00
210.70	878.00
210.97	886.00
211.23	921.00
211.50	928.00
211.77	885.00
212.04	899.00
212.31	902.00
212.58	936.00
212.84	902.00
213.11	897.00
213.38	864.00
213.65	890.00
213.92	870.00
214.18	874.00
214.45	923.00
214.72	926.00
214.99	891.00
215.26	886.00
215.53	873.00
215.79	915.00
216.06	910.00
216.33	905.00
216.60	891.00
216.87	931.00
217.13	866.00
217.40	864.00
217.67	886.00
217.94	913.00
218.21	862.00
218.48	914.00
218.74	964.00
219.01	926.00
219.28	858.00
219.55	874.00
219.82	894.00
220.08	920.00
220.35	872.00
220.62	889.00
220.89	940.00
221.16	945.00
221.42	902.00
221.69	905.00
221.96	916.00
222.23	932.00
222.50	917.00
222.76	918.00
223.03	902.00
223.30	902.00
223.57	867.00
223.84	849.00
224.10	867.00
224.37	914.00
224.64	869.00
224.91	875.00
225.18	910.00
225.44	922.00
225.71	889.00
225.98	929.00
226.25	949.00
226.51	940.00
226.78	885.00
227.05	885.00
227.32	907.00
227.59	915.00
227.85	897.00
228.12	897.00
228.39	927.00
228.66	939.00
228.92	920.00
229.19	911.00
229.46	912.00
229.73	890.00
230.00	873.00
230.26	913.00
230.53	938.00
230.80	924.00
231.07	846.00
231.33	864.00
231.60	907.00
231.87	921.00
232.14	883.00
232.41	918.00
232.67	909.00
232.94	921.00
233.21	871.00
233.48	899.00
233.74	901.00
234.01	880.00
234.28	877.00
234.55	886.00
234.81	886.00
235.08	932.00
235.35	879.00
235.62	876.00
235.88	897.00
236.15	923.00
236.42	897.00
236.69	887.00
236.95	916.00
237.22	891.00
237.49	885.00
237.76	887.00
238.02	925.00
238.29	934.00
238.56	885.00
238.83	881.00
239.09	884.00
239.36	931.00
239.63	886.00
239.90	897.00
240.16	915.00
240.43	934.00
240.70	898.00
240.97	890.00
241.23	898.00
241.50	913.00
241.77	886.00
242.04	895.00
242.30	874.00
242.57	880.00
242.84	866.00
243.11	888.00
243.37	864.00
243.64	913.00
243.91	884.00
244.18	887.00
244.44	886.00
244.71	888.00
244.98	883.00
245.24	899.00
245.51	899.00
245.78	925.00
246.05	879.00
246.31	882.00
246.58	921.00
246.85	894.00
247.12	868.00
247.38	901.00
247.65	909.00
247.92	926.00
248.18	886.00
248.45	897.00
248.72	889.00
248.99	905.00
249.25	857.00
249.52	868.00
249.79	898.00
250.05	885.00
250.32	874.00
250.59	872.00
250.86	890.00
251.12	907.00
251.39	871.00
251.66	889.00
251.92	920.00
252.19	914.00
252.46	873.00
252.73	907.00
252.99	935.00
253.26	940.00
253.53	880.00
253.79	904.00
254.06	898.00
254.33	874.00
254.60	847.00
254.86	873.00
255.13	926.00
255.40	938.00
255.66	884.00
255.93	899.00
256.20	919.00
256.46	933.00
256.73	881.00
257.00	906.00
257.26	906.00
257.53	906.00
257.80	900.00
258.07	902.00
258.33	939.00
258.60	942.00
258.87	871.00
259.13	886.00
259.40	886.00
259.67	929.00
259.93	890.00
260.20	910.00
260.47	916.00
260.73	881.00
261.00	881.00
261.27	892.00
261.53	913.00
261.80	904.00
262.07	864.00
262.34	882.00
262.60	874.00
262.87	898.00
263.14	868.00
263.40	920.00
263.67	885.00
263.94	875.00
264.20	878.00
264.47	861.00
264.74	868.00
265.00	897.00
265.27	872.00
265.54	889.00
265.80	927.00
266.07	926.00
266.34	862.00
266.60	885.00
266.87	896.00
267.14	915.00
267.40	870.00
267.67	867.00
267.94	912.00
268.20	899.00
268.47	871.00
268.74	888.00
269.00	910.00
269.27	891.00
269.54	866.00
269.80	861.00
270.07	901.00
270.33	884.00
270.60	885.00
270.87	891.00
271.13	884.00
271.40	907.00
271.67	851.00
271.93	841.00
272.20	880.00
272.47	881.00
272.73	841.00
273.00	889.00
273.27	892.00
273.53	928.00
273.80	887.00
274.07	888.00
274.33	879.00
274.60	915.00
274.86	889.00
275.13	877.00
275.40	876.00
275.66	914.00
275.93	879.00
276.20	873.00
276.46	871.00
276.73	880.00
277.00	880.00
277.26	905.00
277.53	913.00
277.79	882.00
278.06	868.00
278.33	923.00
278.59	905.00
278.86	894.00
279.13	892.00
279.39	894.00
279.66	918.00
279.93	941.00
280.19	871.00
280.46	878.00
280.72	883.00
280.99	918.00
281.26	875.00
281.52	867.00
281.79	903.00
282.05	903.00
282.32	866.00
282.59	882.00
282.85	923.00
283.12	916.00
283.39	868.00
283.65	886.00
283.92	894.00
284.18	927.00
284.45	880.00
284.72	898.00
284.98	897.00
285.25	883.00
285.51	887.00
285.78	896.00
286.05	885.00
286.31	888.00
286.58	841.00
286.84	855.00
287.11	877.00
287.38	897.00
287.64	874.00
287.91	847.00
288.17	899.00
288.44	900.00
288.71	842.00
288.97	888.00
289.24	915.00
289.50	879.00
289.77	883.00
290.04	861.00
290.30	870.00
290.57	897.00
290.83	851.00
291.10	876.00
291.37	896.00
291.63	890.00
291.90	911.00
292.16	900.00
292.43	892.00
292.70	887.00
292.96	846.00
293.23	859.00
293.49	884.00
293.76	915.00
294.02	883.00
294.29	875.00
294.56	890.00
294.82	906.00
295.09	863.00
295.35	856.00
295.62	910.00
295.89	933.00
296.15	870.00
296.42	873.00
296.68	899.00
296.95	889.00
297.21	897.00
297.48	882.00
297.75	878.00
298.01	915.00
298.28	882.00
298.54	884.00
298.81	892.00
299.07	915.00
299.34	853.00
299.61	890.00
299.87	907.00
300.14	890.00
300.40	901.00
300.67	875.00
300.93	903.00
301.20	937.00
301.46	878.00
301.73	877.00
302.00	900.00
302.26	899.00
302.53	873.00
302.79	877.00
303.06	898.00
303.32	953.00
303.59	874.00
303.85	857.00
304.12	886.00
304.39	913.00
304.65	886.00
304.92	869.00
305.18	889.00
305.45	893.00
305.71	887.00
305.98	884.00
306.24	881.00
306.51	886.00
306.77	862.00
307.04	875.00
307.31	908.00
307.57	911.00
307.84	860.00
308.10	875.00
308.37	869.00
308.63	887.00
308.90	864.00
309.16	883.00
309.43	909.00
309.69	891.00
309.96	879.00
310.22	878.00
310.49	884.00
310.76	888.00
311.02	851.00
311.29	860.00
311.55	880.00
311.82	890.00
312.08	879.00
312.35	858.00
312.61	902.00
312.88	930.00
313.14	870.00
313.41	850.00
313.67	855.00
313.94	898.00
314.20	870.00
314.47	888.00
314.73	886.00
315.00	876.00
315.26	859.00
315.53	892.00
315.79	900.00
316.06	891.00
316.32	880.00
316.59	883.00
316.85	885.00
317.12	910.00
317.39	861.00
317.65	856.00
317.92	870.00
318.18	897.00
318.45	880.00
318.71	929.00
318.98	918.00
319.24	885.00
319.51	892.00
319.77	878.00
320.04	883.00
320.30	885.00
320.57	855.00
320.83	863.00
321.10	854.00
321.36	895.00
321.63	865.00
321.89	865.00
322.16	917.00
322.42	911.00
322.69	865.00
322.95	862.00
323.22	889.00
323.48	922.00
323.75	878.00
324.01	898.00
324.28	890.00
324.54	902.00
324.80	887.00
325.07	896.00
325.33	921.00
325.60	882.00
325.86	854.00
326.13	871.00
326.39	887.00
326.66	876.00
326.92	814.00
327.19	856.00
327.45	914.00
327.72	923.00
327.98	871.00
328.25	869.00
328.51	900.00
328.78	900.00
329.04	862.00
329.31	893.00
329.57	893.00
329.84	902.00
330.10	859.00
330.37	878.00
330.63	918.00
330.89	917.00
331.16	871.00
331.42	874.00
331.69	907.00
331.95	889.00
332.22	879.00
332.48	911.00
332.75	905.00
333.01	864.00
333.28	868.00
333.54	875.00
333.81	891.00
334.07	903.00
334.34	894.00
334.60	875.00
334.86	931.00
335.13	949.00
335.39	893.00
335.66	875.00
335.92	918.00
336.19	903.00
336.45	847.00
336.72	864.00
336.98	872.00
337.24	908.00
337.51	875.00
337.77	875.00
338.04	888.00
338.30	893.00
338.57	871.00
338.83	883.00
339.10	901.00
339.36	890.00
339.63	865.00
339.89	860.00
340.15	880.00
340.42	913.00
340.68	899.00
340.95	897.00
341.21	882.00
341.48	902.00
341.74	826.00
342.00	847.00
342.27	891.00
342.53	884.00
342.80	866.00
343.06	874.00
343.33	891.00
343.59	910.00
343.85	867.00
344.12	882.00
344.38	935.00
344.65	921.00
344.91	870.00
345.18	865.00
345.44	883.00
345.70	877.00
345.97	835.00
346.23	864.00
346.50	901.00
346.76	888.00
347.03	884.00
347.29	877.00
347.55	872.00
347.82	873.00
348.08	840.00
348.35	865.00
348.61	919.00
348.87	899.00
349.14	847.00
349.40	843.00
349.67	893.00
349.93	873.00
350.20	871.00
350.46	884.00
350.72	905.00
350.99	876.00
351.25	871.00
351.52	871.00
351.78	885.00
352.04	892.00
352.31	879.00
352.57	870.00
352.84	868.00
353.10	884.00
353.36	887.00
353.63	877.00
353.89	874.00
354.16	906.00
354.42	884.00
354.68	881.00
354.95	919.00
355.21	915.00
355.48	865.00
355.74	909.00
356.00	938.00
356.27	946.00
356.53	872.00
356.80	883.00
357.06	906.00
357.32	916.00
357.59	886.00
357.85	899.00
358.11	937.00
358.38	908.00
358.64	876.00
358.91	879.00
359.17	893.00
359.43	902.00
359.70	890.00
359.96	896.00
360.22	923.00
360.49	893.00
360.75	874.00
361.02	855.00
361.28	870.00
361.54	885.00
361.81	867.00
362.07	884.00
362.33	889.00
362.60	883.00
362.86	872.00
363.13	887.00
363.39	905.00
363.65	909.00
363.92	835.00
364.18	839.00
364.44	888.00
364.71	897.00
364.97	870.00
365.24	870.00
365.50	892.00
365.76	915.00
366.03	878.00
366.29	901.00
366.55	928.00
366.82	908.00
367.08	860.00
367.34	880.00
367.61	895.00
367.87	898.00
368.13	886.00
368.40	871.00
368.66	922.00
368.93	917.00
369.19	861.00
369.45	856.00
369.72	873.00
369.98	866.00
370.24	842.00
370.51	863.00
370.77	887.00
371.03	903.00
371.30	874.00
371.56	896.00
371.82	914.00
372.09	901.00
372.35	890.00
372.61	890.00
372.88	897.00
373.14	888.00
373.40	874.00
373.67	890.00
373.93	911.00
374.19	918.00
374.46	859.00
374.72	870.00
374.98	906.00
375.25	918.00
375.51	887.00
375.77	915.00
376.04	905.00
376.30	888.00
376.56	841.00
376.83	880.00
377.09	900.00
377.35	908.00
377.62	881.00
377.88	863.00
378.14	869.00
378.41	912.00
378.67	884.00
378.93	877.00
379.20	905.00
379.46	877.00
379.72	859.00
379.99	876.00
380.25	874.00
380.51	868.00
380.77	849.00
381.04	871.00
381.30	901.00
381.56	916.00
381.83	880.00
382.09	867.00
382.35	881.00
382.62	910.00
382.88	906.00
383.14	868.00
383.41	880.00
383.67	882.00
383.93	887.00
384.20	900.00
384.46	890.00
384.72	908.00
384.98	862.00
385.25	884.00
385.51	904.00
385.77	900.00
386.04	878.00
386.30	862.00
386.56	904.00
386.82	909.00
387.09	853.00
387.35	898.00
387.61	951.00
387.88	912.00
388.14	879.00
388.40	873.00
388.67	883.00
388.93	874.00
389.19	873.00
389.45	868.00
389.72	879.00
389.98	914.00
390.24	870.00
390.51	865.00
390.77	907.00
391.03	923.00
391.29	854.00
391.56	855.00
391.82	902.00
392.08	923.00
392.35	876.00
392.61	865.00
392.87	881.00
393.13	911.00
393.40	870.00
393.66	857.00
393.92	877.00
394.18	892.00
394.45	855.00
394.71	861.00
394.97	870.00
395.24	864.00
395.50	858.00
395.76	881.00
396.02	893.00
396.29	892.00
396.55	843.00
396.81	841.00
397.07	872.00
397.34	866.00
397.60	846.00
397.86	851.00
398.12	874.00
398.39	912.00
398.65	866.00
398.91	881.00
399.17	895.00
399.44	856.00
399.70	833.00
399.96	867.00
400.22	855.00
400.49	894.00
400.75	864.00
401.01	859.00
401.27	867.00
401.54	902.00
401.80	854.00
402.06	860.00
402.32	905.00
402.59	886.00
402.85	848.00
403.11	882.00
403.37	863.00
403.64	894.00
403.90	861.00
404.16	866.00
404.42	869.00
404.69	870.00
404.95	859.00
405.21	837.00
405.47	877.00
405.74	891.00
406.00	865.00
406.26	849.00
406.52	871.00
406.79	896.00
407.05	873.00
407.31	874.00
407.57	873.00
407.83	895.00
408.10	854.00
408.36	859.00
408.62	880.00
408.88	873.00
409.15	859.00
409.41	846.00
409.67	855.00
409.93	897.00
410.20	879.00
410.46	863.00
410.72	874.00
410.98	888.00
411.24	874.00
411.51	868.00
411.77	872.00
412.03	894.00
412.29	879.00
412.55	889.00
412.82	876.00
413.08	893.00
413.34	897.00
413.60	887.00
413.87	884.00
414.13	882.00
414.39	838.00
414.65	867.00
414.91	895.00
415.18	876.00
415.44	847.00
415.70	853.00
415.96	874.00
416.22	885.00
416.49	848.00
416.75	851.00
417.01	879.00
417.27	880.00
417.53	866.00
417.80	858.00
418.06	879.00
418.32	897.00
418.58	870.00
418.84	857.00
419.11	889.00
419.37	897.00
419.63	870.00
419.89	876.00
420.15	895.00
420.42	884.00
420.68	851.00
420.94	861.00
421.20	870.00
421.46	890.00
421.72	879.00
421.99	882.00
422.25	884.00
422.51	892.00
422.77	858.00
423.03	889.00
423.30	880.00
423.56	894.00
423.82	892.00
424.08	877.00
424.34	885.00
424.60	874.00
424.87	851.00
425.13	846.00
425.39	876.00
425.65	864.00
425.91	831.00
426.18	879.00
426.44	870.00
426.70	858.00
426.96	821.00
427.22	835.00
427.48	851.00
427.75	871.00
428.01	841.00
428.27	872.00
428.53	911.00
428.79	877.00
429.05	846.00
429.32	863.00
429.58	910.00
429.84	868.00
430.10	885.00
430.36	883.00
430.62	909.00
430.88	919.00
431.15	875.00
431.41	869.00
431.67	878.00
431.93	869.00
432.19	839.00
432.45	857.00
432.72	881.00
432.98	883.00
433.24	900.00
433.50	968.00
433.76	869.00
434.02	865.00
434.28	849.00
434.55	857.00
434.81	879.00
435.07	877.00
435.33	840.00
435.59	868.00
435.85	882.00
436.11	909.00
436.38	853.00
436.64	850.00
436.90	893.00
437.16	892.00
437.42	870.00
437.68	878.00
437.94	890.00
438.21	917.00
438.47	898.00
438.73	894.00
438.99	886.00
439.25	888.00
439.51	875.00
439.77	878.00
440.03	881.00
440.30	898.00
440.56	857.00
440.82	886.00
441.08	906.00
441.34	889.00
441.60	856.00
441.86	881.00
442.12	904.00
442.39	891.00
442.65	861.00
442.91	873.00
443.17	875.00
443.43	890.00
443.69	876.00
443.95	858.00
444.21	860.00
444.47	891.00
444.74	840.00
445.00	863.00
445.26	884.00
445.52	886.00
445.78	870.00
446.04	863.00
446.30	898.00
446.56	893.00
446.82	832.00
447.09	864.00
447.35	890.00
447.61	902.00
447.87	873.00
448.13	885.00
448.39	918.00
448.65	903.00
448.91	855.00
449.17	864.00
449.43	870.00
449.70	863.00
449.96	842.00
450.22	846.00
450.48	889.00
450.74	934.00
451.00	866.00
451.26	863.00
451.52	879.00
451.78	865.00
452.04	849.00
452.31	875.00
452.57	898.00
452.83	872.00
453.09	857.00
453.35	850.00
453.61	868.00
453.87	859.00
454.13	876.00
454.39	883.00
454.65	920.00
454.91	919.00
455.17	853.00
455.44	852.00
455.70	875.00
455.96	886.00
456.22	850.00
456.48	862.00
456.74	866.00
457.00	858.00
457.26	826.00
457.52	863.00
457.78	878.00
458.04	883.00
458.30	834.00
458.56	846.00
458.82	865.00
459.09	851.00
459.35	808.00
459.61	837.00
459.87	883.00
460.13	903.00
460.39	866.00
460.65	840.00
460.91	906.00
461.17	862.00
461.43	838.00
461.69	850.00
461.95	870.00
462.21	871.00
462.47	868.00
462.73	894.00
462.99	914.00
463.26	897.00
463.52	832.00
463.78	822.00
464.04	858.00
464.30	878.00
464.56	834.00
464.82	879.00
465.08	924.00
465.34	916.00
465.60	853.00
465.86	861.00
466.12	865.00
466.38	852.00
466.64	843.00
466.90	861.00
467.16	887.00
467.42	881.00
467.68	838.00
467.94	889.00
468.20	914.00
468.46	868.00
468.72	852.00
468.98	871.00
469.25	881.00
469.51	866.00
469.77	887.00
470.03	865.00
470.29	873.00
470.55	877.00
470.81	860.00
471.07	874.00
471.33	889.00
471.59	902.00
471.85	870.00
472.11	884.00
472.37	880.00
472.63	875.00
472.89	875.00
473.15	873.00
473.41	879.00
473.67	881.00
473.93	845.00
474.19	845.00
474.45	860.00
474.71	873.00
474.97	850.00
475.23	845.00
475.49	860.00
475.75	858.00
476.01	863.00
476.27	871.00
476.53	899.00
476.79	897.00
477.05	860.00
477.31	851.00
477.57	886.00
477.83	877.00
478.09	829.00
478.35	873.00
478.61	897.00
478.87	876.00
479.13	857.00
479.39	915.00
479.65	912.00
479.91	910.00
480.17	885.00
480.43	885.00
480.69	874.00
480.95	898.00
481.21	869.00
481.47	857.00
481.73	878.00
481.99	883.00
482.25	837.00
482.51	828.00
482.77	896.00
483.03	898.00
483.29	868.00
483.55	869.00
483.81	901.00
484.07	905.00
484.33	857.00
484.59	877.00
484.85	903.00
485.11	886.00
485.37	852.00
485.63	854.00
485.89	852.00
486.15	867.00
486.41	854.00
486.67	861.00
486.93	879.00
487.19	867.00
487.45	862.00
487.71	864.00
487.97	885.00
488.23	902.00
488.49	854.00
488.75	854.00
489.01	903.00
489.27	923.00
489.53	871.00
489.79	858.00
490.05	874.00
490.31	901.00
490.57	891.00
490.83	937.00
491.08	873.00
491.34	855.00
491.60	844.00
491.86	879.00
492.12	923.00
492.38	906.00
492.64	851.00
492.90	855.00
493.16	898.00
493.42	856.00
493.68	837.00
493.94	877.00
494.20	855.00
494.46	873.00
494.72	834.00
494.98	845.00
495.24	875.00
495.50	879.00
495.76	873.00
496.02	897.00
496.28	894.00
496.54	891.00
496.80	866.00
497.05	837.00
497.31	890.00
497.57	895.00
497.83	872.00
498.09	889.00
498.35	901.00
498.61	885.00
498.87	860.00
499.13	861.00
499.39	878.00
499.65	886.00
499.91	873.00
500.17	854.00
500.43	923.00
500.69	947.00
500.95	855.00
501.20	890.00
501.46	885.00
501.72	878.00
501.98	886.00
502.24	888.00
502.50	901.00
502.76	873.00
503.02	876.00
503.28	867.00
503.54	932.00
503.80	936.00
504.06	877.00
504.32	892.00
504.58	901.00
504.83	883.00
505.09	844.00
505.35	862.00
505.61	874.00
505.87	865.00
506.13	867.00
506.39	869.00
506.65	900.00
506.91	933.00
507.17	867.00
507.43	873.00
507.68	871.00
507.94	894.00
508.20	863.00
508.46	860.00
508.72	909.00
508.98	912.00
509.24	856.00
509.50	883.00
509.76	878.00
510.02	880.00
510.28	842.00
510.53	857.00
510.79	895.00
511.05	890.00
511.31	835.00
511.57	857.00
511.83	883.00
512.09	903.00
512.35	863.00
512.61	872.00
512.87	887.00
513.12	889.00
513.38	834.00
513.64	874.00
513.90	899.00
514.16	920.00
514.42	883.00
514.68	883.00
514.94	916.00
515.20	901.00
515.45	868.00
515.71	858.00
515.97	865.00
516.23	890.00
516.49	852.00
516.75	867.00
517.01	882.00
517.27	880.00
517.53	854.00
517.78	853.00
518.04	877.00
518.30	880.00
518.56	844.00
518.82	876.00
519.08	895.00
519.34	861.00
519.60	843.00
519.85	886.00
520.11	882.00
520.37	882.00
520.63	874.00
520.89	877.00
521.15	883.00
521.41	881.00
521.66	846.00
521.92	867.00
522.18	908.00
522.44	901.00
522.70	866.00
522.96	829.00
523.22	868.00
523.48	891.00
523.73	857.00
523.99	863.00
524.25	906.00
524.51	899.00
524.77	858.00
525.03	851.00
525.29	893.00
525.54	886.00
525.80	851.00
526.06	859.00
526.32	869.00
526.58	876.00
526.84	845.00
527.09	840.00
527.35	849.00
527.61	865.00
527.87	860.00
528.13	903.00
528.39	876.00
528.65	855.00
528.90	839.00
529.16	874.00
529.42	867.00
529.68	873.00
529.94	859.00
530.20	857.00
530.45	861.00
530.71	877.00
530.97	848.00
531.23	876.00
531.49	884.00
531.75	864.00
532.00	837.00
532.26	840.00
532.52	885.00
532.78	862.00
533.04	850.00
533.30	843.00
533.55	870.00
533.81	866.00
534.07	819.00
534.33	851.00
534.59	886.00
534.85	885.00
535.10	846.00
535.36	850.00
535.62	883.00
535.88	871.00
536.14	843.00
536.39	847.00
536.65	901.00
536.91	890.00
537.17	854.00
537.43	873.00
537.69	915.00
537.94	880.00
538.20	827.00
538.46	853.00
538.72	875.00
538.98	885.00
539.23	849.00
539.49	853.00
539.75	898.00
540.01	899.00
540.27	869.00
540.52	897.00
540.78	894.00
541.04	894.00
541.30	853.00
541.56	835.00
541.81	903.00
542.07	960.00
542.33	867.00
542.59	862.00
542.85	862.00
543.10	866.00
543.36	839.00
543.62	882.00
543.88	879.00
544.14	882.00
544.39	864.00
544.65	883.00
544.91	898.00
545.17	883.00
545.43	867.00
545.68	843.00
545.94	875.00
546.20	881.00
546.46	863.00
546.71	869.00
546.97	874.00
547.23	894.00
547.49	856.00
547.75	860.00
548.00	887.00
548.26	907.00
548.52	846.00
548.78	847.00
549.03	865.00
549.29	866.00
549.55	831.00
549.81	851.00
550.07	894.00
550.32	899.00
550.58	838.00
550.84	880.00
551.10	884.00
551.35	874.00
551.61	845.00
551.87	890.00
552.13	890.00
552.39	857.00
552.64	829.00
552.90	861.00
553.16	887.00
553.42	876.00
553.67	832.00
553.93	841.00
554.19	888.00
554.45	911.00
554.70	870.00
554.96	842.00
555.22	860.00
555.48	899.00
555.73	855.00
555.99	860.00
556.25	900.00
556.51	884.00
556.76	862.00
557.02	860.00
557.28	876.00
557.54	865.00
557.79	845.00
558.05	885.00
558.31	861.00
558.57	900.00
558.82	857.00
559.08	833.00
559.34	850.00
559.60	886.00
559.85	859.00
560.11	875.00
560.37	876.00
560.63	864.00
560.88	857.00
561.14	848.00
561.40	878.00
561.66	863.00
561.91	860.00
562.17	880.00
562.43	883.00
562.68	884.00
562.94	876.00
563.20	870.00
563.46	894.00
563.71	916.00
563.97	851.00
564.23	880.00
564.49	898.00
564.74	866.00
565.00	822.00
565.26	844.00
565.51	873.00
565.77	862.00
566.03	835.00
566.29	868.00
566.54	865.00
566.80	877.00
567.06	853.00
567.31	869.00
567.57	891.00
567.83	862.00
568.09	854.00
568.34	867.00
568.60	871.00
568.86	892.00
569.11	885.00
569.37	855.00
569.63	870.00
569.89	886.00
570.14	813.00
570.40	845.00
570.66	867.00
570.91	864.00
571.17	858.00
571.43	868.00
571.69	909.00
571.94	910.00
572.20	843.00
572.46	860.00
572.71	897.00
572.97	886.00
573.23	847.00
573.48	859.00
573.74	872.00
574.00	900.00
574.26	853.00
574.51	861.00
574.77	888.00
575.03	875.00
575.28	841.00
575.54	836.00
575.80	855.00
576.05	877.00
576.31	846.00
576.57	841.00
576.82	873.00
577.08	871.00
577.34	850.00
577.59	864.00
577.85	902.00
578.11	877.00
578.37	846.00
578.62	836.00
578.88	880.00
579.14	908.00
579.39	857.00
579.65	866.00
579.91	861.00
580.16	881.00
580.42	868.00
580.68	863.00
580.93	888.00
581.19	876.00
581.45	843.00
581.70	869.00
581.96	899.00
582.22	902.00
582.47	864.00
582.73	884.00
582.99	904.00
583.24	871.00
583.50	833.00
583.76	850.00
584.01	881.00
584.27	892.00
584.53	857.00
584.78	866.00
585.04	876.00
585.30	887.00
585.55	874.00
585.81	867.00
586.07	899.00
586.32	902.00
586.58	868.00
586.83	856.00
587.09	887.00
587.35	885.00
587.60	846.00
587.86	845.00
588.12	869.00
588.37	898.00
588.63	868.00
588.89	881.00
589.14	882.00
589.40	905.00
589.66	850.00
589.91	871.00
590.17	881.00
590.43	846.00
590.68	836.00
590.94	868.00
591.19	907.00
591.45	872.00
591.71	861.00
591.96	876.00
592.22	888.00
592.48	883.00
592.73	853.00
592.99	862.00
593.25	882.00
593.50	893.00
593.76	849.00
594.01	858.00
594.27	899.00
594.53	889.00
594.78	852.00
595.04	868.00
595.30	886.00
595.55	885.00
595.81	856.00
596.06	861.00
596.32	911.00
596.58	902.00
596.83	853.00
597.09	878.00
597.35	881.00
597.60	855.00
597.86	848.00
598.11	871.00
598.37	908.00
598.63	891.00
598.88	863.00
599.14	868.00
599.39	909.00
599.65	898.00
599.91	842.00
600.16	881.00
600.42	917.00
600.67	927.00
600.93	871.00
601.19	900.00
601.44	937.00
601.70	909.00
601.95	857.00
602.21	891.00
602.47	897.00
602.72	910.00
602.98	871.00
603.23	896.00
603.49	919.00
603.75	921.00
604.00	881.00
604.26	878.00
604.51	877.00
604.77	906.00
605.03	866.00
605.28	906.00
605.54	939.00
605.79	959.00
606.05	892.00
606.31	888.00
606.56	917.00
606.82	934.00
607.07	926.00
607.33	930.00
607.59	959.00
607.84	924.00
608.10	886.00
608.35	899.00
608.61	931.00
608.86	937.00
609.12	927.00
609.38	936.00
609.63	957.00
609.89	913.00
610.14	896.00
610.40	911.00
610.65	948.00
610.91	967.00
611.17	921.00
611.42	932.00
611.68	976.00
611.93	989.00
612.19	948.00
612.44	951.00
612.70	977.00
612.96	956.00
613.21	950.00
613.47	956.00
613.72	971.00
613.98	1001.00
614.23	951.00
614.49	971.00
614.75	996.00
615.00	983.00
615.26	948.00
615.51	969.00
615.77	997.00
616.02	1032.00
616.28	986.00
616.53	983.00
616.79	1003.00
617.05	996.00
617.30	988.00
617.56	1021.00
617.81	1060.00
618.07	1064.00
618.32	1037.00
618.58	1051.00
618.83	1072.00
619.09	1081.00
619.34	1036.00
619.60	1055.00
619.86	1106.00
620.11	1130.00
620.37	1106.00
620.62	1117.00
620.88	1158.00
621.13	1162.00
621.39	1135.00
621.64	1159.00
621.90	1197.00
622.15	1172.00
622.41	1163.00
622.66	1230.00
622.92	1293.00
623.18	1343.00
623.43	1296.00
623.69	1260.00
623.94	1278.00
624.20	1296.00
624.45	1320.00
624.71	1361.00
624.96	1384.00
625.22	1429.00
625.47	1420.00
625.73	1476.00
625.98	1521.00
626.24	1498.00
626.49	1487.00
626.75	1504.00
627.00	1523.00
627.26	1548.00
627.51	1576.00
627.77	1667.00
628.02	1717.00
628.28	1668.00
628.53	1665.00
628.79	1765.00
629.05	1835.00
629.30	1839.00
629.56	1787.00
629.81	1804.00
630.07	1895.00
630.32	1944.00
630.58	1947.00
630.83	1978.00
631.09	2100.00
631.34	2241.00
631.60	2390.00
631.85	2699.00
632.11	2873.00
632.36	2789.00
632.62	2770.00
632.87	2861.00
633.13	2787.00
633.38	2639.00
633.64	2746.00
633.89	2856.00
634.15	2840.00
634.40	2929.00
634.66	3111.00
634.91	3185.00
635.17	3387.00
635.42	3524.00
635.68	3436.00
635.93	3337.00
636.18	3378.00
636.44	3382.00
636.69	3331.00
636.95	3368.00
637.20	3422.00
637.46	3428.00
637.71	3507.00
637.97	3474.00
638.22	3214.00
638.48	3122.00
638.73	3103.00
638.99	3093.00
639.24	3081.00
639.50	2961.00
639.75	3006.00
640.01	3182.00
640.26	3396.00
640.52	3228.00
640.77	2905.00
641.03	2715.00
641.28	2569.00
641.54	2505.00
641.79	2422.00
642.04	2295.00
642.30	2207.00
642.55	2116.00
642.81	2113.00
643.06	2231.00
643.32	2288.00
643.57	2091.00
643.83	1901.00
644.08	1843.00
644.34	1852.00
644.59	1876.00
644.85	1815.00
645.10	1825.00
645.35	1716.00
645.61	1620.00
645.86	1570.00
646.12	1577.00
646.37	1566.00
646.63	1515.00
646.88	1482.00
647.14	1489.00
647.39	1460.00
647.65	1425.00
647.90	1377.00
648.15	1360.00
648.41	1340.00
648.66	1360.00
648.92	1242.00
649.17	1202.00
649.43	1217.00
649.68	1216.00
649.94	1186.00
650.19	1118.00
650.44	1118.00
650.70	1108.00
650.95	1072.00
651.21	1101.00
651.46	1111.00
651.72	1061.00
651.97	1026.00
652.23	1027.00
652.48	1049.00
652.73	1056.00
652.99	1004.00
653.24	1009.00
653.50	1002.00
653.75	998.00
654.01	989.00
654.26	987.00
654.51	989.00
654.77	998.00
655.02	971.00
655.28	965.00
655.53	965.00
655.79	981.00
656.04	958.00
656.29	953.00
656.55	941.00
656.80	940.00
657.06	907.00
657.31	917.00
657.56	908.00
657.82	910.00
658.07	910.00
658.33	925.00
658.58	933.00
658.84	949.00
659.09	899.00
659.34	913.00
659.60	923.00
659.85	923.00
660.11	879.00
660.36	900.00
660.61	898.00
660.87	880.00
661.12	874.00
661.38	889.00
661.63	916.00
661.88	906.00
662.14	899.00
662.39	871.00
662.65	902.00
662.90	950.00
663.15	878.00
663.41	874.00
663.66	931.00
663.92	950.00
664.17	888.00
664.42	892.00
664.68	903.00
664.93	889.00
665.19	850.00
665.44	861.00
665.69	870.00
665.95	892.00
666.20	862.00
666.45	897.00
666.71	906.00
666.96	906.00
667.22	842.00
667.47	870.00
667.72	885.00
667.98	900.00
668.23	849.00
668.49	899.00
668.74	917.00
668.99	887.00
669.25	847.00
669.50	858.00
669.75	876.00
670.01	870.00
670.26	854.00
670.52	869.00
670.77	898.00
671.02	867.00
671.28	832.00
671.53	870.00
671.78	887.00
672.04	883.00
672.29	870.00
672.54	865.00
672.80	876.00
673.05	890.00
673.31	844.00
673.56	888.00
673.81	899.00
674.07	888.00
674.32	872.00
674.57	880.00
674.83	874.00
675.08	897.00
675.33	865.00
675.59	878.00
675.84	877.00
676.09	857.00
676.35	841.00
676.60	881.00
676.86	877.00
677.11	896.00
677.36	857.00
677.62	872.00
677.87	901.00
678.12	909.00
678.38	850.00
678.63	854.00
678.88	901.00
679.14	916.00
679.39	842.00
679.64	869.00
679.90	860.00
680.15	874.00
680.40	881.00
680.66	857.00
680.91	890.00
681.16	873.00
681.42	845.00
681.67	844.00
681.92	887.00
682.18	919.00
682.43	869.00
682.68	860.00
682.94	857.00
683.19	867.00
683.44	848.00
683.70	887.00
683.95	882.00
684.20	879.00
684.46	882.00
684.71	891.00
684.96	874.00
685.22	907.00
685.47	869.00
685.72	880.00
685.98	880.00
686.23	837.00
686.48	833.00
686.74	890.00
686.99	908.00
687.24	876.00
687.50	842.00
687.75	851.00
688.00	872.00
688.25	893.00
688.51	865.00
688.76	876.00
689.01	861.00
689.27	871.00
689.52	836.00
689.77	852.00
690.03	841.00
690.28	861.00
690.53	840.00
690.79	866.00
691.04	885.00
691.29	894.00
691.54	828.00
691.80	864.00
692.05	872.00
692.30	881.00
692.56	850.00
692.81	874.00
693.06	866.00
693.32	837.00
693.57	835.00
693.82	868.00
694.07	912.00
694.33	896.00
694.58	848.00
694.83	887.00
695.09	881.00
695.34	896.00
695.59	859.00
695.84	860.00
696.10	885.00
696.35	882.00
696.60	838.00
696.86	843.00
697.11	885.00
697.36	888.00
697.61	847.00
697.87	865.00
698.12	855.00
698.37	864.00
698.63	874.00
698.88	852.00
699.13	870.00
699.38	884.00
699.64	843.00
699.89	844.00
700.14	845.00
700.39	870.00
700.65	855.00
700.90	873.00
701.15	871.00
701.40	889.00
701.66	858.00
701.91	857.00
702.16	859.00
702.42	863.00
702.67	831.00
702.92	840.00
703.17	854.00
703.43	873.00
703.68	873.00
703.93	888.00
704.18	896.00
704.44	860.00
704.69	844.00
704.94	873.00
705.19	874.00
705.45	877.00
705.70	873.00
705.95	856.00
706.20	876.00
706.46	877.00
706.71	848.00
706.96	853.00
707.21	868.00
707.47	859.00
707.72	859.00
707.97	873.00
708.22	894.00
708.48	892.00
708.73	846.00
708.98	837.00
709.23	865.00
709.49	881.00
709.74	856.00
709.99	858.00
710.24	870.00
710.50	865.00
710.75	857.00
711.00	881.00
711.25	893.00
711.50	871.00
711.76	829.00
712.01	849.00
712.26	846.00
712.51	890.00
712.77	845.00
713.02	861.00
713.27	836.00
713.52	859.00
713.78	854.00
714.03	857.00
714.28	855.00
714.53	868.00
714.78	848.00
715.04	886.00
715.29	887.00
715.54	882.00
715.79	839.00
716.05	873.00
716.30	881.00
716.55	877.00
716.80	869.00
717.05	889.00
717.31	884.00
717.56	867.00
717.81	858.00
718.06	858.00
718.31	837.00
718.57	853.00
718.82	852.00
719.07	891.00
719.32	866.00
719.57	874.00
719.83	833.00
720.08	857.00
720.33	863.00
720.58	852.00
720.83	833.00
721.09	883.00
721.34	873.00
721.59	865.00
721.84	834.00
722.09	861.00
722.35	868.00
722.60	863.00
722.85	832.00
723.10	842.00
723.35	843.00
723.61	887.00
723.86	882.00
724.11	856.00
724.36	868.00
724.61	858.00
724.87	842.00
725.12	850.00
725.37	853.00
725.62	839.00
725.87	846.00
726.12	841.00
726.38	839.00
726.63	856.00
726.88	834.00
727.13	877.00
727.38	871.00
727.64	881.00
727.89	843.00
728.14	854.00
728.39	830.00
728.64	870.00
728.89	840.00
729.15	865.00
729.40	878.00
729.65	901.00
729.90	828.00
730.15	860.00
730.40	882.00
730.66	868.00
730.91	832.00
731.16	857.00
731.41	878.00
731.66	883.00
731.91	849.00
732.17	872.00
732.42	884.00
732.67	858.00
732.92	823.00
733.17	864.00
733.42	868.00
733.68	865.00
733.93	828.00
734.18	857.00
734.43	845.00
734.68	870.00
734.93	849.00
735.18	862.00
735.44	864.00
735.69	871.00
735.94	827.00
736.19	855.00
736.44	850.00
736.69	901.00
736.95	852.00
737.20	877.00
737.45	877.00
737.70	875.00
737.95	871.00
738.20	883.00
738.45	886.00
738.70	877.00
738.96	867.00
739.21	890.00
739.46	872.00
739.71	892.00
739.96	866.00
740.21	874.00
740.46	921.00
740.72	905.00
740.97	851.00
741.22	868.00
741.47	868.00
741.72	893.00
741.97	846.00
742.22	859.00
742.47	871.00
742.73	882.00
742.98	836.00
743.23	841.00
743.48	845.00
743.73	872.00
743.98	856.00
744.23	857.00
744.48	877.00
744.74	857.00
744.99	848.00
745.24	872.00
745.49	856.00
745.74	890.00
745.99	849.00
746.24	869.00
746.49	850.00
746.74	861.00
747.00	858.00
747.25	852.00
747.50	812.00
747.75	842.00
748.00	827.00
748.25	846.00
748.50	853.00
748.75	886.00
749.00	892.00
749.26	904.00
749.51	882.00
749.76	893.00
750.01	836.00
750.26	870.00
750.51	885.00
750.76	873.00
751.01	834.00
751.26	851.00
751.51	867.00
751.77	884.00
752.02	839.00
752.27	848.00
752.52	861.00
752.77	884.00
753.02	868.00
753.27	885.00
753.52	885.00
753.77	859.00
754.02	843.00
754.27	856.00
754.52	836.00
754.78	855.00
755.03	843.00
755.28	872.00
755.53	873.00
755.78	861.00
756.03	828.00
756.28	871.00
756.53	870.00
756.78	895.00
757.03	850.00
757.28	859.00
757.53	871.00
757.79	852.00
758.04	833.00
758.29	867.00
758.54	869.00
758.79	885.00
759.04	848.00
759.29	853.00
759.54	853.00
759.79	843.00
760.04	853.00
760.29	860.00
760.54	858.00
760.79	875.00
761.04	847.00
761.29	856.00
761.55	860.00
761.80	875.00
762.05	822.00
762.30	844.00
762.55	853.00
762.80	883.00
763.05	871.00
763.30	881.00
763.55	905.00
763.80	884.00
764.05	831.00
764.30	866.00
764.55	881.00
764.80	880.00
765.05	845.00
765.30	868.00
765.55	870.00
765.80	861.00
766.05	818.00
766.30	873.00
766.56	867.00
766.81	872.00
767.06	873.00
767.31	876.00
767.56	860.00
767.81	869.00
768.06	840.00
768.31	869.00
768.56	870.00
768.81	900.00
769.06	855.00
769.31	873.00
769.56	854.00
769.81	866.00
770.06	829.00
770.31	842.00
770.56	851.00
770.81	848.00
771.06	833.00
771.31	871.00
771.56	865.00
771.81	873.00
772.06	848.00
772.31	879.00
772.56	866.00
772.81	886.00
773.06	844.00
773.31	868.00
773.56	869.00
773.81	834.00
774.06	837.00
774.31	854.00
774.56	857.00
774.81	878.00
775.06	861.00
775.31	878.00
775.56	876.00
775.81	852.00
776.06	825.00
776.31	849.00
776.56	857.00
776.82	862.00
777.07	824.00
777.32	843.00
777.57	855.00
777.82	878.00
778.07	846.00
778.32	852.00
778.57	880.00
778.82	877.00
779.07	852.00
779.32	854.00
779.57	833.00
779.82	853.00
780.07	839.00
780.32	854.00
780.56	861.00
780.81	891.00
781.06	825.00
781.31	835.00
781.56	896.00
781.81	876.00
782.06	830.00
782.31	867.00
782.56	864.00
782.81	886.00
783.06	845.00
783.31	853.00
783.56	862.00
783.81	879.00
784.06	845.00
784.31	847.00
784.56	835.00
784.81	897.00
785.06	848.00
785.31	849.00
785.56	845.00
785.81	856.00
786.06	840.00
786.31	869.00
786.56	852.00
786.81	868.00
787.06	873.00
787.31	861.00
787.56	852.00
787.81	848.00
788.06	841.00
788.31	853.00
788.56	836.00
788.81	863.00
789.06	851.00
789.31	857.00
789.56	869.00
789.81	868.00
790.06	820.00
790.31	870.00
790.56	862.00
790.80	869.00
791.05	849.00
791.30	834.00
791.55	837.00
791.80	863.00
792.05	844.00
792.30	840.00
792.55	836.00
792.80	874.00
793.05	850.00
793.30	864.00
793.55	866.00
793.80	870.00
794.05	836.00
794.30	852.00
794.55	864.00
794.80	891.00
795.05	842.00
795.30	845.00
795.54	837.00
795.79	859.00
796.04	821.00
796.29	857.00
796.54	857.00
796.79	875.00
797.04	854.00
797.29	864.00
797.54	864.00
797.79	889.00
798.04	847.00
798.29	839.00
798.54	835.00
798.79	844.00
799.04	825.00
799.29	856.00
799.53	856.00
799.78	858.00
800.03	852.00
800.28	854.00
800.53	851.00
800.78	876.00
801.03	849.00
801.28	847.00
801.53	850.00
801.78	873.00
802.03	841.00
802.28	856.00
802.52	893.00
802.77	897.00
803.02	877.00
803.27	888.00
803.52	855.00
803.77	885.00
804.02	862.00
804.27	869.00
804.52	855.00
804.77	874.00
805.02	857.00
805.27	875.00
805.51	866.00
805.76	889.00
806.01	855.00
806.26	854.00
806.51	850.00
806.76	893.00
807.01	864.00
807.26	841.00
807.51	872.00
807.76	851.00
808.00	836.00
808.25	865.00
808.50	883.00
808.75	850.00
809.00	838.00
809.25	852.00
809.50	856.00
809.75	891.00
810.00	849.00
810.24	857.00
810.49	828.00
810.74	844.00
810.99	836.00
811.24	857.00
811.49	860.00
811.74	874.00
811.99	807.00
812.24	858.00
812.48	845.00
812.73	847.00
812.98	819.00
813.23	839.00
813.48	842.00
813.73	854.00
813.98	824.00
814.23	858.00
814.47	856.00
814.72	850.00
814.97	841.00
815.22	872.00
815.47	857.00
815.72	878.00
815.97	834.00
816.22	857.00
816.46	858.00
816.71	867.00
816.96	849.00
817.21	856.00
817.46	841.00
817.71	870.00
817.96	846.00
818.20	849.00
818.45	829.00
818.70	850.00
818.95	826.00
819.20	845.00
819.45	863.00
819.70	862.00
819.94	836.00
820.19	866.00
820.44	856.00
820.69	880.00
820.94	852.00
821.19	863.00
821.44	912.00
821.68	927.00
821.93	860.00
822.18	872.00
822.43	872.00
822.68	880.00
822.93	847.00
823.17	859.00
823.42	865.00
823.67	848.00
823.92	853.00
824.17	865.00
824.42	856.00
824.67	881.00
824.91	863.00
825.16	870.00
825.41	871.00
825.66	860.00
825.91	812.00
826.16	843.00
826.40	870.00
826.65	877.00
826.90	842.00
827.15	860.00
827.40	883.00
827.65	877.00
827.89	817.00
828.14	846.00
828.39	860.00
828.64	855.00
828.89	843.00
829.13	835.00
829.38	846.00
829.63	861.00
829.88	825.00
830.13	825.00
830.38	838.00
830.62	849.00
830.87	838.00
831.12	877.00
831.37	895.00
831.62	899.00
831.86	854.00
832.11	869.00
832.36	843.00
832.61	878.00
832.86	844.00
833.10	867.00
833.35	875.00
833.60	895.00
833.85	856.00
834.10	875.00
834.35	900.00
834.59	920.00
834.84	845.00
835.09	861.00
835.34	843.00
835.59	862.00
835.83	862.00
836.08	868.00
836.33	870.00
836.58	879.00
836.83	859.00
837.07	856.00
837.32	869.00
837.57	862.00
837.82	831.00
838.06	850.00
838.31	882.00
838.56	888.00
838.81	839.00
839.06	853.00
839.30	859.00
839.55	884.00
839.80	840.00
840.05	862.00
840.30	870.00
840.54	884.00
840.79	849.00
841.04	872.00
841.29	878.00
841.53	881.00
841.78	865.00
842.03	836.00
842.28	836.00
842.53	832.00
842.77	842.00
843.02	867.00
843.27	865.00
843.52	865.00
843.76	856.00
844.01	884.00
844.26	854.00
844.51	881.00
844.75	850.00
845.00	841.00
845.25	864.00
845.50	876.00
845.75	829.00
845.99	851.00
846.24	857.00
846.49	883.00
846.74	843.00
846.98	838.00
847.23	851.00
847.48	873.00
847.73	845.00
847.97	853.00
848.22	871.00
848.47	873.00
848.72	829.00
848.96	832.00
849.21	874.00
849.46	846.00
849.71	846.00
849.95	862.00
850.20	857.00
850.45	875.00
850.70	838.00
850.94	850.00
851.19	852.00
851.44	860.00
851.69	814.00
851.93	854.00
852.18	879.00
852.43	886.00
852.68	858.00
852.92	879.00
853.17	891.00
853.42	883.00
853.66	865.00
853.91	876.00
854.16	848.00
854.41	887.00
854.65	851.00
854.90	849.00
855.15	860.00
855.40	866.00
855.64	847.00
855.89	852.00
856.14	848.00
856.39	855.00
856.63	836.00
856.88	850.00
857.13	841.00
857.37	854.00
857.62	833.00
857.87	822.00
858.12	844.00
858.36	884.00
858.61	828.00
858.86	850.00
859.10	876.00
859.35	871.00
859.60	841.00
859.85	834.00
860.09	838.00
860.34	873.00
860.59	854.00
860.83	863.00
861.08	850.00
861.33	874.00
861.58	856.00
861.82	848.00
862.07	856.00
862.32	864.00
862.56	826.00
862.81	862.00
863.06	869.00
863.30	868.00
863.55	861.00
863.80	869.00
864.05	866.00
864.29	843.00
864.54	869.00
864.79	868.00
865.03	878.00
865.28	888.00
865.53	848.00
865.77	836.00
866.02	871.00
866.27	897.00
866.51	865.00
866.76	837.00
867.01	837.00
867.26	868.00
867.50	846.00
867.75	830.00
868.00	869.00
868.24	881.00
868.49	845.00
868.74	858.00
868.98	863.00
869.23	873.00
869.48	863.00
869.72	854.00
869.97	858.00
870.22	878.00
870.46	845.00
870.71	855.00
870.96	868.00
871.20	865.00
871.45	837.00
871.70	851.00
871.94	876.00
872.19	890.00
872.44	875.00
872.68	855.00
872.93	835.00
873.18	871.00
873.42	840.00
873.67	862.00
873.92	887.00
874.16	865.00
874.41	867.00
874.66	872.00
874.90	878.00
875.15	899.00
875.40	877.00
875.64	879.00
875.89	867.00
876.14	882.00
876.38	836.00
876.63	852.00
876.88	860.00
877.12	860.00
877.37	833.00
877.62	881.00
877.86	848.00
878.11	860.00
878.36	824.00
878.60	853.00
878.85	849.00
879.09	852.00
879.34	846.00
879.59	866.00
879.83	882.00
880.08	900.00
880.33	867.00
880.57	867.00
880.82	877.00
881.07	881.00
881.31	853.00
881.56	860.00
881.80	826.00
882.05	846.00
882.30	822.00
882.54	840.00
882.79	891.00
883.04	913.00
883.28	865.00
883.53	848.00
883.77	889.00
884.02	892.00
884.27	834.00
884.51	832.00
884.76	841.00
885.01	883.00
885.25	834.00
885.50	867.00
885.74	859.00
885.99	897.00
886.24	855.00
886.48	860.00
886.73	880.00
886.98	907.00
887.22	879.00
887.47	870.00
887.71	876.00
887.96	881.00
888.21	864.00
888.45	840.00
888.70	855.00
888.94	884.00
889.19	841.00
889.44	849.00
889.68	867.00
889.93	898.00
890.17	867.00
890.42	844.00
890.67	878.00
890.91	960.00
891.16	864.00
891.40	838.00
891.65	858.00
891.90	890.00
892.14	833.00
892.39	868.00
892.63	865.00
892.88	877.00
893.13	858.00
893.37	846.00
893.62	853.00
893.86	893.00
894.11	849.00
894.36	854.00
894.60	834.00
894.85	848.00
895.09	849.00
895.34	874.00
895.59	870.00
895.83	874.00
896.08	842.00
896.32	843.00
896.57	853.00
896.81	870.00
897.06	850.00
897.31	848.00
897.55	891.00
897.80	865.00
898.04	836.00
898.29	849.00
898.53	851.00
898.78	872.00
899.03	858.00
899.27	865.00
899.52	875.00
899.76	874.00
900.01	849.00
900.25	853.00
900.50	864.00
900.75	885.00
900.99	851.00
901.24	917.00
901.48	865.00
901.73	880.00
901.97	850.00
902.22	874.00
902.47	875.00
902.71	869.00
902.96	832.00
903.20	857.00
903.45	878.00
903.69	880.00
903.94	872.00
904.18	833.00
904.43	850.00
904.68	870.00
904.92	829.00
905.17	846.00
905.41	858.00
905.66	874.00
905.90	880.00
906.15	850.00
906.39	858.00
906.64	859.00
906.88	828.00
907.13	860.00
907.38	892.00
907.62	888.00
907.87	840.00
908.11	878.00
908.36	850.00
908.60	861.00
908.85	811.00
909.09	846.00
909.34	849.00
909.58	865.00
909.83	856.00
910.07	861.00
910.32	898.00
910.56	917.00
910.81	837.00
911.06	876.00
911.30	872.00
911.55	853.00
911.79	842.00
912.04	865.00
912.28	855.00
912.53	868.00
912.77	871.00
913.02	862.00
913.26	861.00
913.51	876.00
913.75	842.00
914.00	851.00
914.24	877.00
914.49	878.00
914.73	850.00
914.98	865.00
915.22	885.00
915.47	862.00
915.71	843.00
915.96	859.00
916.20	863.00
916.45	844.00
916.69	842.00
916.94	854.00
917.18	862.00
917.43	872.00
917.67	830.00
917.92	825.00
918.16	871.00
918.41	874.00
918.65	841.00
918.90	841.00
919.14	837.00
919.39	853.00
919.63	832.00
919.88	850.00
920.12	872.00
920.37	894.00
920.61	847.00
920.86	878.00
921.10	878.00
921.35	855.00
921.59	837.00
921.84	851.00
922.08	869.00
922.33	889.00
922.57	834.00
922.82	838.00
923.06	865.00
923.31	869.00
923.55	821.00
923.80	851.00
924.04	857.00
924.29	874.00
924.53	832.00
924.78	848.00
925.02	846.00
925.27	868.00
925.51	845.00
925.76	876.00
926.00	869.00
926.25	863.00
926.49	852.00
926.73	872.00
926.98	858.00
927.22	886.00
927.47	856.00
927.71	838.00
927.96	875.00
928.20	864.00
928.45	864.00
928.69	904.00
928.94	890.00
929.18	873.00
929.43	854.00
929.67	840.00
929.91	852.00
930.16	878.00
930.40	836.00
930.65	842.00
930.89	864.00
931.14	884.00
931.38	860.00
931.63	870.00
931.87	869.00
932.12	880.00
932.36	826.00
932.60	858.00
932.85	880.00
933.09	857.00
933.34	819.00
933.58	858.00
933.83	836.00
934.07	867.00
934.32	854.00
934.56	865.00
934.80	892.00
935.05	906.00
935.29	864.00
935.54	868.00
935.78	858.00
936.03	875.00
936.27	830.00
936.52	838.00
936.76	862.00
937.00	861.00
937.25	834.00
937.49	878.00
937.74	899.00
937.98	891.00
938.23	837.00
938.47	842.00
938.71	850.00
938.96	840.00
939.20	830.00
939.45	837.00
939.69	872.00
939.94	883.00
940.18	828.00
940.42	852.00
940.67	854.00
940.91	853.00
941.16	846.00
941.40	838.00
941.64	844.00
941.89	861.00
942.13	834.00
942.38	870.00
942.62	937.00
942.87	905.00
943.11	871.00
943.35	868.00
943.60	875.00
943.84	907.00
944.09	861.00
944.33	877.00
944.57	882.00
944.82	856.00
945.06	829.00
945.31	852.00
945.55	858.00
945.79	887.00
946.04	863.00
946.28	844.00
946.53	870.00
946.77	893.00
947.01	832.00
947.26	874.00
947.50	868.00
947.75	872.00
947.99	838.00
948.23	873.00
948.48	861.00
948.72	864.00
948.97	864.00
949.21	873.00
949.45	867.00
949.70	900.00
949.94	858.00
950.18	851.00
950.43	865.00
950.67	873.00
950.92	843.00
951.16	845.00
951.40	855.00
951.65	872.00
951.89	843.00
952.13	853.00
952.38	867.00
952.62	875.00
952.87	830.00
953.11	869.00
953.35	892.00
953.60	866.00
953.84	806.00
954.08	818.00
954.33	863.00
954.57	882.00
954.82	852.00
955.06	850.00
955.30	850.00
955.55	864.00
955.79	851.00
956.03	859.00
956.28	869.00
956.52	867.00
956.76	862.00
957.01	885.00
957.25	873.00
957.50	872.00
957.74	839.00
957.98	850.00
958.23	877.00
958.47	865.00
958.71	854.00
958.96	868.00
959.20	893.00
959.44	865.00
959.69	838.00
959.93	869.00
960.17	864.00
960.42	873.00
960.66	857.00
960.90	883.00
961.15	870.00
961.39	856.00
961.64	829.00
961.88	826.00
962.12	887.00
962.37	877.00
962.61	836.00
962.85	838.00
963.10	877.00
963.34	866.00
963.58	839.00
963.83	841.00
964.07	857.00
964.31	864.00
964.56	857.00
964.80	854.00
965.04	873.00
965.29	877.00
965.53	861.00
965.77	837.00
966.02	816.00
966.26	840.00
966.50	830.00
966.74	865.00
966.99	898.00
967.23	873.00
967.47	838.00
967.72	848.00
967.96	853.00
968.20	869.00
968.45	842.00
968.69	831.00
968.93	848.00
969.18	876.00
969.42	856.00
969.66	853.00
969.91	851.00
970.15	874.00
970.39	836.00
970.64	862.00
970.88	883.00
971.12	876.00
971.36	858.00
971.61	846.00
971.85	857.00
972.09	862.00
972.34	838.00
972.58	844.00
972.82	872.00
973.07	899.00
973.31	832.00
973.55	833.00
973.79	866.00
974.04	917.00
974.28	869.00
974.52	860.00
974.77	845.00
975.01	889.00
975.25	848.00
975.50	853.00
975.74	875.00
975.98	864.00
976.22	858.00
976.47	860.00
976.71	867.00
976.95	877.00
977.20	861.00
977.44	862.00
977.68	866.00
977.92	882.00
978.17	853.00
978.41	851.00
978.65	873.00
978.90	864.00
979.14	852.00
979.38	854.00
979.62	862.00
979.87	862.00
980.11	819.00
980.35	855.00
980.59	867.00
980.84	873.00
981.08	847.00
981.32	844.00
981.57	859.00
981.81	860.00
982.05	858.00
982.29	849.00
982.54	858.00
982.78	856.00
983.02	825.00
983.26	841.00
983.51	879.00
983.75	888.00
983.99	837.00
984.23	880.00
984.48	860.00
984.72	878.00
984.96	821.00
985.20	849.00
985.45	896.00
985.69	900.00
985.93	860.00
986.17	879.00
986.42	874.00
986.66	872.00
986.90	813.00
987.14	829.00
987.39	865.00
987.63	839.00
987.87	822.00
988.11	812.00
988.36	866.00
988.60	872.00
988.84	859.00
989.08	832.00
989.33	867.00
989.57	878.00
989.81	821.00
990.05	839.00
990.30	852.00
990.54	839.00
990.78	820.00
991.02	828.00
991.27	855.00
991.51	866.00
991.75	840.00
991.99	872.00
992.23	845.00
992.48	837.00
992.72	825.00
992.96	829.00
993.20	846.00
993.45	867.00
993.69	864.00
993.93	842.00
994.17	863.00
994.41	857.00
994.66	824.00
994.90	865.00
995.14	882.00
995.38	868.00
995.63	862.00
995.87	844.00
996.11	898.00
996.35	892.00
996.59	824.00
996.84	837.00
997.08	876.00
997.32	856.00
997.56	832.00
997.80	835.00
998.05	828.00
998.29	846.00
998.53	821.00
998.77	864.00
999.01	867.00
999.26	858.00
999.50	844.00
999.74	835.00
999.98	864.00
1000.22	860.00
1000.47	825.00
1000.71	834.00
1000.95	885.00
1001.19	869.00
1001.43	857.00
1001.68	865.00
1001.92	864.00
1002.16	852.00
1002.40	828.00
1002.64	846.00
1002.89	856.00
1003.13	860.00
1003.37	856.00
1003.61	851.00
1003.85	870.00
1004.10	841.00
1004.34	833.00
1004.58	837.00
1004.82	861.00
1005.06	853.00
1005.30	830.00
1005.55	840.00
1005.79	870.00
1006.03	856.00
1006.27	830.00
1006.51	834.00
1006.76	860.00
1007.00	874.00
1007.24	849.00
1007.48	853.00
1007.72	874.00
1007.96	875.00
1008.21	856.00
1008.45	861.00
1008.69	868.00
1008.93	873.00
1009.17	846.00
1009.41	875.00
1009.66	891.00
1009.90	870.00
1010.14	830.00
1010.38	852.00
1010.62	873.00
1010.86	892.00
1011.10	840.00
1011.35	844.00
1011.59	866.00
1011.83	828.00
1012.07	818.00
1012.31	849.00
1012.55	853.00
1012.80	860.00
1013.04	860.00
1013.28	860.00
1013.52	848.00
1013.76	879.00
1014.00	846.00
1014.24	860.00
1014.49	873.00
1014.73	899.00
1014.97	873.00
1015.21	860.00
1015.45	879.00
1015.69	862.00
1015.93	854.00
1016.18	851.00
1016.42	874.00
1016.66	879.00
1016.90	837.00
1017.14	824.00
1017.38	854.00
1017.62	880.00
1017.87	848.00
1018.11	839.00
1018.35	862.00
1018.59	882.00
1018.83	828.00
1019.07	845.00
1019.31	870.00
1019.55	878.00
1019.80	834.00
1020.04	851.00
1020.28	861.00
1020.52	874.00
1020.76	840.00
1021.00	833.00
1021.24	855.00
1021.48	850.00
1021.73	848.00
1021.97	857.00
1022.21	861.00
1022.45	869.00
1022.69	839.00
1022.93	835.00
1023.17	876.00
1023.41	899.00
1023.65	867.00
1023.90	890.00
1024.14	877.00
1024.38	842.00
1024.62	832.00
1024.86	834.00
1025.10	869.00
1025.34	867.00
1025.58	833.00
1025.82	846.00
1026.07	872.00
1026.31	867.00
1026.55	833.00
1026.79	825.00
1027.03	844.00
1027.27	874.00
1027.51	822.00
1027.75	808.00
1027.99	831.00
1028.23	877.00
1028.47	858.00
1028.72	839.00
1028.96	860.00
1029.20	859.00
1029.44	860.00
1029.68	851.00
1029.92	866.00
1030.16	872.00
1030.40	820.00
1030.64	838.00
1030.88	846.00
1031.12	851.00
1031.37	825.00
1031.61	851.00
1031.85	873.00
1032.09	883.00
1032.33	852.00
1032.57	876.00
1032.81	864.00
1033.05	884.00
1033.29	867.00
1033.53	853.00
1033.77	912.00
1034.01	912.00
1034.25	873.00
1034.50	857.00
1034.74	863.00
1034.98	885.00
1035.22	851.00
1035.46	862.00
1035.70	877.00
1035.94	869.00
1036.18	845.00
1036.42	855.00
1036.66	854.00
1036.90	865.00
1037.14	830.00
1037.38	842.00
1037.62	872.00
1037.86	878.00
1038.10	857.00
1038.35	858.00
1038.59	883.00
1038.83	889.00
1039.07	865.00
1039.31	875.00
1039.55	858.00
1039.79	855.00
1040.03	828.00
1040.27	822.00
1040.51	869.00
1040.75	904.00
1040.99	860.00
1041.23	861.00
1041.47	872.00
1041.71	890.00
1041.95	861.00
1042.19	860.00
1042.43	899.00
1042.67	905.00
1042.91	854.00
1043.15	847.00
1043.39	893.00
1043.64	872.00
1043.88	838.00
1044.12	866.00
1044.36	910.00
1044.60	892.00
1044.84	858.00
1045.08	872.00
1045.32	874.00
1045.56	874.00
1045.80	862.00
1046.04	857.00
1046.28	880.00
1046.52	871.00
1046.76	834.00
1047.00	840.00
1047.24	868.00
1047.48	852.00
1047.72	860.00
1047.96	873.00
1048.20	881.00
1048.44	868.00
1048.68	834.00
1048.92	857.00
1049.16	853.00
1049.40	871.00
1049.64	851.00
1049.88	876.00
1050.12	882.00
1050.36	892.00
1050.60	852.00
1050.84	867.00
1051.08	870.00
1051.32	865.00
1051.56	851.00
1051.80	849.00
1052.04	865.00
1052.28	896.00
1052.52	835.00
1052.76	825.00
1053.00	841.00
1053.24	854.00
1053.48	826.00
1053.72	852.00
1053.96	872.00
1054.20	874.00
1054.44	858.00
1054.68	878.00
1054.92	897.00
1055.16	848.00
1055.40	839.00
1055.64	861.00
1055.88	890.00
1056.12	902.00
1056.36	839.00
1056.60	844.00
1056.84	881.00
1057.08	863.00
1057.32	858.00
1057.56	863.00
1057.80	853.00
1058.04	880.00
1058.28	833.00
1058.52	850.00
1058.76	892.00
1059.00	893.00
1059.24	828.00
1059.48	826.00
1059.72	870.00
1059.96	873.00
1060.20	861.00
1060.44	868.00
1060.68	886.00
1060.92	876.00
1061.16	832.00
1061.40	851.00
1061.64	848.00
1061.88	857.00
1062.11	850.00
1062.35	839.00
1062.59	863.00
1062.83	878.00
1063.07	855.00
1063.31	838.00
1063.55	842.00
1063.79	872.00
1064.03	856.00
1064.27	835.00
1064.51	874.00
1064.75	885.00
1064.99	856.00
1065.23	861.00
1065.47	837.00
1065.71	876.00
1065.95	855.00
1066.19	855.00
1066.43	883.00
1066.67	898.00
1066.91	868.00
1067.15	856.00
1067.38	848.00
1067.62	864.00
1067.86	833.00
1068.10	858.00
1068.34	886.00
1068.58	887.00
1068.82	835.00
1069.06	820.00
1069.30	873.00
1069.54	900.00
1069.78	882.00
1070.02	859.00
1070.26	896.00
1070.50	905.00
1070.74	872.00
1070.98	892.00
1071.21	883.00
1071.45	872.00
1071.69	833.00
1071.93	852.00
1072.17	867.00
1072.41	893.00
1072.65	866.00
1072.89	881.00
1073.13	877.00
1073.37	880.00
1073.61	839.00
1073.85	854.00
1074.09	837.00
1074.32	853.00
1074.56	845.00
1074.80	917.00
1075.04	1117.00
1075.28	966.00
1075.52	859.00
1075.76	861.00
1076.00	900.00
1076.24	876.00
1076.48	870.00
1076.72	877.00
1076.96	888.00
1077.19	872.00
1077.43	836.00
1077.67	874.00
1077.91	877.00
1078.15	851.00
1078.39	852.00
1078.63	852.00
1078.87	867.00
1079.11	874.00
1079.35	828.00
1079.58	843.00
1079.82	858.00
1080.06	850.00
1080.30	814.00
1080.54	860.00
1080.78	892.00
1081.02	860.00
1081.26	855.00
1081.50	885.00
1081.74	874.00
1081.97	884.00
1082.21	838.00
1082.45	850.00
1082.69	850.00
1082.93	850.00
1083.17	840.00
1083.41	837.00
1083.65	885.00
1083.88	898.00
1084.12	863.00
1084.36	867.00
1084.60	882.00
1084.84	873.00
1085.08	833.00
1085.32	865.00
1085.56	871.00
1085.80	873.00
1086.03	835.00
1086.27	845.00
1086.51	868.00
1086.75	872.00
1086.99	842.00
1087.23	826.00
1087.47	875.00
1087.70	864.00
1087.94	851.00
1088.18	871.00
1088.42	924.00
1088.66	872.00
1088.90	826.00
1089.14	842.00
1089.38	872.00
1089.61	889.00
1089.85	873.00
1090.09	837.00
1090.33	885.00
1090.57	906.00
1090.81	825.00
1091.05	862.00
1091.28	876.00
1091.52	874.00
1091.76	839.00
1092.00	850.00
1092.24	871.00
1092.48	889.00
1092.71	841.00
1092.95	873.00
1093.19	885.00
1093.43	870.00
1093.67	829.00
1093.91	862.00
1094.15	872.00
1094.38	872.00
1094.62	839.00
1094.86	841.00
1095.10	849.00
1095.34	859.00
1095.58	839.00
1095.81	843.00
1096.05	876.00
1096.29	884.00
1096.53	828.00
1096.77	857.00
1097.01	853.00
1097.24	889.00
1097.48	840.00
1097.72	861.00
1097.96	866.00
1098.20	890.00
1098.44	842.00
1098.67	818.00
1098.91	867.00
1099.15	882.00
1099.39	839.00
1099.63	845.00
1099.86	888.00
1100.10	861.00
1100.34	848.00
1100.58	853.00
1100.82	878.00
1101.06	849.00
1101.29	822.00
1101.53	841.00
1101.77	858.00
1102.01	848.00
1102.25	840.00
1102.48	872.00
1102.72	905.00
1102.96	883.00
1103.20	827.00
1103.44	838.00
1103.67	852.00
1103.91	875.00
1104.15	836.00
1104.39	836.00
1104.63	862.00
1104.86	832.00
1105.10	832.00
1105.34	857.00
1105.58	831.00
1105.82	847.00
1106.05	845.00
1106.29	854.00
1106.53	860.00
1106.77	883.00
1107.01	837.00
1107.24	866.00
1107.48	903.00
1107.72	882.00
1107.96	835.00
1108.20	844.00
1108.43	846.00
1108.67	853.00
1108.91	840.00
1109.15	826.00
1109.39	856.00
1109.62	856.00
1109.86	817.00
1110.10	830.00
1110.34	892.00
1110.57	903.00
1110.81	859.00
1111.05	861.00
1111.29	888.00
1111.53	896.00
1111.76	839.00
1112.00	879.00
1112.24	901.00
1112.48	882.00
1112.71	837.00
1112.95	842.00
1113.19	894.00
1113.43	866.00
1113.66	825.00
1113.90	855.00
1114.14	885.00
1114.38	866.00
1114.62	842.00
1114.85	878.00
1115.09	865.00
1115.33	917.00
1115.57	858.00
1115.80	835.00
1116.04	869.00
1116.28	860.00
1116.52	835.00
1116.75	849.00
1116.99	903.00
1117.23	909.00
1117.47	867.00
1117.70	866.00
1117.94	903.00
1118.18	862.00
1118.42	839.00
1118.65	866.00
1118.89	892.00
1119.13	875.00
1119.37	836.00
1119.60	854.00
1119.84	886.00
>>>>>End Processed Spectral Data<<<<<
