SpectraSuite Data File
++++++++++++++++++++++++++++++++++++
Date: Fri Dec 06 14:51:33 CET 2024
User: student
Dark Spectrum Present: No
Reference Spectrum Present: No
Number of Sampled Component Spectra: 1
Spectrometers: HR4C155
Integration Time (usec): 100000 (HR4C155)
Spectra Averaged: 1 (HR4C155)
Boxcar Smoothing: 0 (HR4C155)
Correct for Electrical Dark: No (HR4C155)
Strobe/Lamp Enabled: No (HR4C155)
Correct for Detector Non-linearity: No (HR4C155)
Correct for Stray Light: No (HR4C155)
Number of Pixels in Processed Spectrum: 3648
>>>>>Begin Processed Spectral Data<<<<<
195.39	701.00
195.66	701.00
195.93	701.00
196.20	680.00
196.46	704.00
196.73	806.00
197.00	819.00
197.27	829.00
197.54	844.00
197.81	844.00
198.08	839.00
198.35	872.00
198.61	872.00
198.88	842.00
199.15	841.00
199.42	870.00
199.69	888.00
199.96	853.00
200.23	853.00
200.49	845.00
200.76	875.00
201.03	881.00
201.30	868.00
201.57	915.00
201.84	932.00
202.11	880.00
202.38	884.00
202.64	901.00
202.91	900.00
203.18	845.00
203.45	897.00
203.72	980.00
203.99	909.00
204.25	904.00
204.52	909.00
204.79	912.00
205.06	908.00
205.33	864.00
205.60	883.00
205.87	920.00
206.13	909.00
206.40	887.00
206.67	877.00
206.94	906.00
207.21	931.00
207.48	878.00
207.75	882.00
208.01	918.00
208.28	920.00
208.55	876.00
208.82	884.00
209.09	890.00
209.36	924.00
209.62	896.00
209.89	906.00
210.16	922.00
210.43	939.00
210.70	880.00
210.97	902.00
211.23	923.00
211.50	938.00
211.77	884.00
212.04	899.00
212.31	897.00
212.58	912.00
212.84	886.00
213.11	895.00
213.38	875.00
213.65	891.00
213.92	876.00
214.18	889.00
214.45	924.00
214.72	926.00
214.99	879.00
215.26	887.00
215.53	887.00
215.79	932.00
216.06	918.00
216.33	900.00
216.60	863.00
216.87	906.00
217.13	855.00
217.40	889.00
217.67	917.00
217.94	931.00
218.21	864.00
218.48	922.00
218.74	956.00
219.01	916.00
219.28	860.00
219.55	860.00
219.82	900.00
220.08	926.00
220.35	884.00
220.62	898.00
220.89	933.00
221.16	951.00
221.42	891.00
221.69	900.00
221.96	924.00
222.23	924.00
222.50	927.00
222.76	916.00
223.03	898.00
223.30	889.00
223.57	867.00
223.84	865.00
224.10	880.00
224.37	906.00
224.64	864.00
224.91	889.00
225.18	907.00
225.44	923.00
225.71	892.00
225.98	911.00
226.25	915.00
226.51	937.00
226.78	887.00
227.05	892.00
227.32	920.00
227.59	926.00
227.85	901.00
228.12	900.00
228.39	935.00
228.66	937.00
228.92	938.00
229.19	887.00
229.46	902.00
229.73	899.00
230.00	875.00
230.26	890.00
230.53	926.00
230.80	910.00
231.07	860.00
231.33	882.00
231.60	899.00
231.87	917.00
232.14	888.00
232.41	936.00
232.67	914.00
232.94	930.00
233.21	868.00
233.48	895.00
233.74	909.00
234.01	903.00
234.28	871.00
234.55	893.00
234.81	893.00
235.08	939.00
235.35	893.00
235.62	881.00
235.88	902.00
236.15	924.00
236.42	907.00
236.69	916.00
236.95	936.00
237.22	911.00
237.49	895.00
237.76	890.00
238.02	904.00
238.29	917.00
238.56	870.00
238.83	875.00
239.09	884.00
239.36	912.00
239.63	881.00
239.90	893.00
240.16	926.00
240.43	962.00
240.70	891.00
240.97	883.00
241.23	889.00
241.50	915.00
241.77	879.00
242.04	889.00
242.30	867.00
242.57	889.00
242.84	842.00
243.11	865.00
243.37	862.00
243.64	921.00
243.91	908.00
244.18	885.00
244.44	875.00
244.71	872.00
244.98	888.00
245.24	883.00
245.51	897.00
245.78	923.00
246.05	868.00
246.31	873.00
246.58	901.00
246.85	908.00
247.12	885.00
247.38	909.00
247.65	926.00
247.92	928.00
248.18	899.00
248.45	906.00
248.72	903.00
248.99	907.00
249.25	864.00
249.52	880.00
249.79	903.00
250.05	910.00
250.32	881.00
250.59	884.00
250.86	877.00
251.12	887.00
251.39	868.00
251.66	891.00
251.92	914.00
252.19	922.00
252.46	864.00
252.73	915.00
252.99	953.00
253.26	954.00
253.53	866.00
253.79	892.00
254.06	904.00
254.33	885.00
254.60	876.00
254.86	879.00
255.13	926.00
255.40	954.00
255.66	902.00
255.93	903.00
256.20	927.00
256.46	929.00
256.73	879.00
257.00	885.00
257.26	909.00
257.53	919.00
257.80	899.00
258.07	911.00
258.33	938.00
258.60	940.00
258.87	882.00
259.13	903.00
259.40	891.00
259.67	937.00
259.93	894.00
260.20	904.00
260.47	909.00
260.73	887.00
261.00	863.00
261.27	885.00
261.53	919.00
261.80	906.00
262.07	866.00
262.34	876.00
262.60	863.00
262.87	914.00
263.14	877.00
263.40	889.00
263.67	869.00
263.94	876.00
264.20	870.00
264.47	836.00
264.74	875.00
265.00	888.00
265.27	852.00
265.54	868.00
265.80	910.00
266.07	925.00
266.34	859.00
266.60	875.00
266.87	909.00
267.14	907.00
267.40	858.00
267.67	849.00
267.94	902.00
268.20	908.00
268.47	857.00
268.74	872.00
269.00	896.00
269.27	890.00
269.54	853.00
269.80	865.00
270.07	915.00
270.33	907.00
270.60	892.00
270.87	899.00
271.13	881.00
271.40	901.00
271.67	827.00
271.93	833.00
272.20	894.00
272.47	863.00
272.73	828.00
273.00	868.00
273.27	877.00
273.53	923.00
273.80	882.00
274.07	861.00
274.33	869.00
274.60	909.00
274.86	884.00
275.13	884.00
275.40	875.00
275.66	910.00
275.93	899.00
276.20	868.00
276.46	859.00
276.73	867.00
277.00	869.00
277.26	901.00
277.53	908.00
277.79	912.00
278.06	880.00
278.33	932.00
278.59	913.00
278.86	873.00
279.13	872.00
279.39	900.00
279.66	931.00
279.93	926.00
280.19	878.00
280.46	876.00
280.72	876.00
280.99	908.00
281.26	885.00
281.52	870.00
281.79	890.00
282.05	914.00
282.32	863.00
282.59	892.00
282.85	919.00
283.12	910.00
283.39	885.00
283.65	900.00
283.92	901.00
284.18	906.00
284.45	878.00
284.72	879.00
284.98	897.00
285.25	896.00
285.51	901.00
285.78	892.00
286.05	887.00
286.31	892.00
286.58	846.00
286.84	870.00
287.11	877.00
287.38	903.00
287.64	904.00
287.91	867.00
288.17	898.00
288.44	904.00
288.71	841.00
288.97	869.00
289.24	906.00
289.50	881.00
289.77	892.00
290.04	856.00
290.30	883.00
290.57	918.00
290.83	863.00
291.10	866.00
291.37	880.00
291.63	890.00
291.90	894.00
292.16	897.00
292.43	893.00
292.70	895.00
292.96	870.00
293.23	862.00
293.49	882.00
293.76	918.00
294.02	883.00
294.29	884.00
294.56	898.00
294.82	907.00
295.09	848.00
295.35	862.00
295.62	918.00
295.89	925.00
296.15	872.00
296.42	853.00
296.68	878.00
296.95	879.00
297.21	876.00
297.48	875.00
297.75	895.00
298.01	917.00
298.28	876.00
298.54	891.00
298.81	903.00
299.07	909.00
299.34	858.00
299.61	872.00
299.87	895.00
300.14	882.00
300.40	892.00
300.67	891.00
300.93	905.00
301.20	946.00
301.46	877.00
301.73	872.00
302.00	911.00
302.26	900.00
302.53	900.00
302.79	880.00
303.06	894.00
303.32	923.00
303.59	862.00
303.85	870.00
304.12	898.00
304.39	912.00
304.65	880.00
304.92	878.00
305.18	880.00
305.45	900.00
305.71	881.00
305.98	881.00
306.24	871.00
306.51	864.00
306.77	874.00
307.04	889.00
307.31	929.00
307.57	921.00
307.84	850.00
308.10	856.00
308.37	844.00
308.63	883.00
308.90	865.00
309.16	883.00
309.43	911.00
309.69	895.00
309.96	875.00
310.22	878.00
310.49	902.00
310.76	922.00
311.02	859.00
311.29	876.00
311.55	889.00
311.82	887.00
312.08	884.00
312.35	893.00
312.61	921.00
312.88	914.00
313.14	874.00
313.41	860.00
313.67	852.00
313.94	880.00
314.20	878.00
314.47	898.00
314.73	875.00
315.00	875.00
315.26	863.00
315.53	901.00
315.79	897.00
316.06	896.00
316.32	884.00
316.59	887.00
316.85	881.00
317.12	907.00
317.39	863.00
317.65	862.00
317.92	885.00
318.18	909.00
318.45	882.00
318.71	912.00
318.98	922.00
319.24	918.00
319.51	885.00
319.77	873.00
320.04	874.00
320.30	893.00
320.57	863.00
320.83	865.00
321.10	863.00
321.36	888.00
321.63	855.00
321.89	879.00
322.16	905.00
322.42	904.00
322.69	865.00
322.95	897.00
323.22	916.00
323.48	923.00
323.75	875.00
324.01	886.00
324.28	891.00
324.54	898.00
324.80	881.00
325.07	888.00
325.33	905.00
325.60	885.00
325.86	844.00
326.13	871.00
326.39	882.00
326.66	878.00
326.92	823.00
327.19	865.00
327.45	917.00
327.72	930.00
327.98	868.00
328.25	850.00
328.51	886.00
328.78	885.00
329.04	865.00
329.31	899.00
329.57	900.00
329.84	895.00
330.10	865.00
330.37	870.00
330.63	910.00
330.89	927.00
331.16	875.00
331.42	887.00
331.69	929.00
331.95	898.00
332.22	890.00
332.48	917.00
332.75	908.00
333.01	885.00
333.28	869.00
333.54	891.00
333.81	899.00
334.07	896.00
334.34	893.00
334.60	885.00
334.86	921.00
335.13	938.00
335.39	886.00
335.66	884.00
335.92	907.00
336.19	901.00
336.45	840.00
336.72	863.00
336.98	878.00
337.24	891.00
337.51	844.00
337.77	873.00
338.04	908.00
338.30	901.00
338.57	864.00
338.83	875.00
339.10	887.00
339.36	895.00
339.63	869.00
339.89	848.00
340.15	882.00
340.42	902.00
340.68	884.00
340.95	896.00
341.21	896.00
341.48	899.00
341.74	853.00
342.00	851.00
342.27	902.00
342.53	909.00
342.80	877.00
343.06	880.00
343.33	906.00
343.59	913.00
343.85	863.00
344.12	892.00
344.38	945.00
344.65	924.00
344.91	874.00
345.18	873.00
345.44	870.00
345.70	870.00
345.97	837.00
346.23	854.00
346.50	899.00
346.76	883.00
347.03	881.00
347.29	897.00
347.55	887.00
347.82	877.00
348.08	842.00
348.35	868.00
348.61	934.00
348.87	920.00
349.14	858.00
349.40	862.00
349.67	915.00
349.93	908.00
350.20	870.00
350.46	875.00
350.72	899.00
350.99	890.00
351.25	876.00
351.52	882.00
351.78	883.00
352.04	900.00
352.31	880.00
352.57	877.00
352.84	883.00
353.10	878.00
353.36	860.00
353.63	860.00
353.89	877.00
354.16	897.00
354.42	878.00
354.68	897.00
354.95	912.00
355.21	883.00
355.48	858.00
355.74	881.00
356.00	933.00
356.27	937.00
356.53	862.00
356.80	864.00
357.06	904.00
357.32	925.00
357.59	897.00
357.85	871.00
358.11	915.00
358.38	914.00
358.64	861.00
358.91	860.00
359.17	886.00
359.43	901.00
359.70	895.00
359.96	876.00
360.22	919.00
360.49	883.00
360.75	866.00
361.02	855.00
361.28	861.00
361.54	891.00
361.81	846.00
362.07	868.00
362.33	869.00
362.60	876.00
362.86	854.00
363.13	877.00
363.39	925.00
363.65	915.00
363.92	837.00
364.18	846.00
364.44	874.00
364.71	889.00
364.97	867.00
365.24	876.00
365.50	911.00
365.76	918.00
366.03	878.00
366.29	892.00
366.55	903.00
366.82	890.00
367.08	853.00
367.34	867.00
367.61	898.00
367.87	913.00
368.13	882.00
368.40	861.00
368.66	917.00
368.93	908.00
369.19	837.00
369.45	856.00
369.72	890.00
369.98	894.00
370.24	854.00
370.51	868.00
370.77	904.00
371.03	906.00
371.30	877.00
371.56	889.00
371.82	902.00
372.09	898.00
372.35	883.00
372.61	884.00
372.88	892.00
373.14	912.00
373.40	876.00
373.67	888.00
373.93	898.00
374.19	918.00
374.46	867.00
374.72	860.00
374.98	897.00
375.25	891.00
375.51	881.00
375.77	897.00
376.04	913.00
376.30	908.00
376.56	858.00
376.83	891.00
377.09	910.00
377.35	906.00
377.62	886.00
377.88	875.00
378.14	870.00
378.41	903.00
378.67	869.00
378.93	874.00
379.20	895.00
379.46	872.00
379.72	859.00
379.99	883.00
380.25	870.00
380.51	859.00
380.77	873.00
381.04	885.00
381.30	906.00
381.56	934.00
381.83	904.00
382.09	880.00
382.35	864.00
382.62	908.00
382.88	890.00
383.14	883.00
383.41	882.00
383.67	869.00
383.93	866.00
384.20	872.00
384.46	908.00
384.72	917.00
384.98	836.00
385.25	884.00
385.51	917.00
385.77	875.00
386.04	841.00
386.30	857.00
386.56	902.00
386.82	973.00
387.09	880.00
387.35	915.00
387.61	980.00
387.88	904.00
388.14	887.00
388.40	897.00
388.67	875.00
388.93	887.00
389.19	868.00
389.45	866.00
389.72	872.00
389.98	889.00
390.24	870.00
390.51	877.00
390.77	899.00
391.03	925.00
391.29	877.00
391.56	872.00
391.82	905.00
392.08	914.00
392.35	874.00
392.61	860.00
392.87	894.00
393.13	930.00
393.40	879.00
393.66	869.00
393.92	890.00
394.18	888.00
394.45	836.00
394.71	862.00
394.97	883.00
395.24	841.00
395.50	849.00
395.76	891.00
396.02	902.00
396.29	894.00
396.55	838.00
396.81	837.00
397.07	870.00
397.34	863.00
397.60	847.00
397.86	858.00
398.12	869.00
398.39	901.00
398.65	865.00
398.91	859.00
399.17	893.00
399.44	859.00
399.70	824.00
399.96	865.00
400.22	884.00
400.49	921.00
400.75	885.00
401.01	868.00
401.27	875.00
401.54	902.00
401.80	857.00
402.06	858.00
402.32	905.00
402.59	877.00
402.85	853.00
403.11	858.00
403.37	853.00
403.64	892.00
403.90	863.00
404.16	874.00
404.42	882.00
404.69	868.00
404.95	864.00
405.21	845.00
405.47	872.00
405.74	918.00
406.00	863.00
406.26	851.00
406.52	876.00
406.79	906.00
407.05	872.00
407.31	879.00
407.57	872.00
407.83	895.00
408.10	856.00
408.36	864.00
408.62	880.00
408.88	884.00
409.15	855.00
409.41	845.00
409.67	863.00
409.93	889.00
410.20	881.00
410.46	878.00
410.72	877.00
410.98	881.00
411.24	855.00
411.51	859.00
411.77	869.00
412.03	899.00
412.29	887.00
412.55	898.00
412.82	882.00
413.08	910.00
413.34	892.00
413.60	885.00
413.87	883.00
414.13	873.00
414.39	842.00
414.65	874.00
414.91	899.00
415.18	867.00
415.44	828.00
415.70	843.00
415.96	891.00
416.22	886.00
416.49	871.00
416.75	860.00
417.01	878.00
417.27	871.00
417.53	858.00
417.80	893.00
418.06	901.00
418.32	891.00
418.58	859.00
418.84	860.00
419.11	886.00
419.37	900.00
419.63	846.00
419.89	867.00
420.15	879.00
420.42	867.00
420.68	856.00
420.94	872.00
421.20	886.00
421.46	887.00
421.72	878.00
421.99	870.00
422.25	872.00
422.51	900.00
422.77	874.00
423.03	877.00
423.30	885.00
423.56	907.00
423.82	890.00
424.08	894.00
424.34	908.00
424.60	895.00
424.87	870.00
425.13	861.00
425.39	875.00
425.65	876.00
425.91	842.00
426.18	873.00
426.44	880.00
426.70	869.00
426.96	829.00
427.22	833.00
427.48	860.00
427.75	877.00
428.01	845.00
428.27	878.00
428.53	912.00
428.79	863.00
429.05	862.00
429.32	870.00
429.58	918.00
429.84	880.00
430.10	877.00
430.36	883.00
430.62	899.00
430.88	903.00
431.15	882.00
431.41	880.00
431.67	891.00
431.93	874.00
432.19	840.00
432.45	881.00
432.72	899.00
432.98	885.00
433.24	908.00
433.50	971.00
433.76	883.00
434.02	871.00
434.28	850.00
434.55	874.00
434.81	890.00
435.07	900.00
435.33	859.00
435.59	859.00
435.85	868.00
436.11	902.00
436.38	846.00
436.64	844.00
436.90	883.00
437.16	894.00
437.42	866.00
437.68	865.00
437.94	907.00
438.21	901.00
438.47	890.00
438.73	895.00
438.99	897.00
439.25	880.00
439.51	856.00
439.77	880.00
440.03	897.00
440.30	898.00
440.56	875.00
440.82	894.00
441.08	898.00
441.34	880.00
441.60	847.00
441.86	879.00
442.12	898.00
442.39	880.00
442.65	868.00
442.91	849.00
443.17	851.00
443.43	883.00
443.69	887.00
443.95	854.00
444.21	861.00
444.47	901.00
444.74	850.00
445.00	863.00
445.26	864.00
445.52	877.00
445.78	852.00
446.04	852.00
446.30	908.00
446.56	904.00
446.82	836.00
447.09	866.00
447.35	897.00
447.61	888.00
447.87	860.00
448.13	882.00
448.39	911.00
448.65	898.00
448.91	856.00
449.17	855.00
449.43	862.00
449.70	887.00
449.96	847.00
450.22	842.00
450.48	870.00
450.74	916.00
451.00	869.00
451.26	886.00
451.52	870.00
451.78	873.00
452.04	856.00
452.31	897.00
452.57	904.00
452.83	865.00
453.09	850.00
453.35	869.00
453.61	901.00
453.87	896.00
454.13	874.00
454.39	879.00
454.65	943.00
454.91	937.00
455.17	865.00
455.44	852.00
455.70	871.00
455.96	885.00
456.22	860.00
456.48	866.00
456.74	894.00
457.00	864.00
457.26	813.00
457.52	852.00
457.78	881.00
458.04	899.00
458.30	831.00
458.56	871.00
458.82	866.00
459.09	859.00
459.35	809.00
459.61	840.00
459.87	891.00
460.13	910.00
460.39	866.00
460.65	839.00
460.91	893.00
461.17	861.00
461.43	833.00
461.69	840.00
461.95	885.00
462.21	897.00
462.47	880.00
462.73	908.00
462.99	901.00
463.26	897.00
463.52	855.00
463.78	848.00
464.04	866.00
464.30	891.00
464.56	857.00
464.82	876.00
465.08	929.00
465.34	909.00
465.60	883.00
465.86	881.00
466.12	881.00
466.38	861.00
466.64	829.00
466.90	873.00
467.16	882.00
467.42	886.00
467.68	853.00
467.94	875.00
468.20	905.00
468.46	880.00
468.72	848.00
468.98	877.00
469.25	888.00
469.51	865.00
469.77	879.00
470.03	882.00
470.29	881.00
470.55	880.00
470.81	861.00
471.07	877.00
471.33	898.00
471.59	910.00
471.85	870.00
472.11	894.00
472.37	903.00
472.63	886.00
472.89	875.00
473.15	853.00
473.41	884.00
473.67	889.00
473.93	827.00
474.19	847.00
474.45	855.00
474.71	890.00
474.97	859.00
475.23	861.00
475.49	868.00
475.75	874.00
476.01	857.00
476.27	869.00
476.53	901.00
476.79	900.00
477.05	872.00
477.31	859.00
477.57	883.00
477.83	870.00
478.09	827.00
478.35	881.00
478.61	909.00
478.87	878.00
479.13	850.00
479.39	894.00
479.65	900.00
479.91	892.00
480.17	874.00
480.43	905.00
480.69	864.00
480.95	874.00
481.21	861.00
481.47	852.00
481.73	885.00
481.99	865.00
482.25	841.00
482.51	832.00
482.77	897.00
483.03	882.00
483.29	850.00
483.55	857.00
483.81	905.00
484.07	889.00
484.33	854.00
484.59	859.00
484.85	891.00
485.11	888.00
485.37	864.00
485.63	850.00
485.89	869.00
486.15	875.00
486.41	844.00
486.67	858.00
486.93	877.00
487.19	875.00
487.45	846.00
487.71	853.00
487.97	904.00
488.23	907.00
488.49	860.00
488.75	858.00
489.01	882.00
489.27	908.00
489.53	858.00
489.79	859.00
490.05	882.00
490.31	889.00
490.57	877.00
490.83	922.00
491.08	866.00
491.34	844.00
491.60	858.00
491.86	881.00
492.12	913.00
492.38	911.00
492.64	867.00
492.90	859.00
493.16	877.00
493.42	844.00
493.68	843.00
493.94	861.00
494.20	855.00
494.46	875.00
494.72	842.00
494.98	870.00
495.24	861.00
495.50	867.00
495.76	870.00
496.02	887.00
496.28	891.00
496.54	902.00
496.80	867.00
497.05	843.00
497.31	892.00
497.57	885.00
497.83	855.00
498.09	875.00
498.35	899.00
498.61	893.00
498.87	863.00
499.13	861.00
499.39	900.00
499.65	874.00
499.91	879.00
500.17	865.00
500.43	942.00
500.69	946.00
500.95	865.00
501.20	866.00
501.46	892.00
501.72	913.00
501.98	905.00
502.24	894.00
502.50	904.00
502.76	879.00
503.02	860.00
503.28	886.00
503.54	922.00
503.80	909.00
504.06	884.00
504.32	888.00
504.58	892.00
504.83	891.00
505.09	843.00
505.35	881.00
505.61	880.00
505.87	877.00
506.13	868.00
506.39	865.00
506.65	900.00
506.91	933.00
507.17	861.00
507.43	847.00
507.68	876.00
507.94	913.00
508.20	863.00
508.46	839.00
508.72	904.00
508.98	917.00
509.24	853.00
509.50	874.00
509.76	863.00
510.02	880.00
510.28	841.00
510.53	850.00
510.79	871.00
511.05	882.00
511.31	868.00
511.57	869.00
511.83	893.00
512.09	899.00
512.35	854.00
512.61	876.00
512.87	887.00
513.12	895.00
513.38	838.00
513.64	860.00
513.90	886.00
514.16	906.00
514.42	863.00
514.68	868.00
514.94	901.00
515.20	903.00
515.45	858.00
515.71	850.00
515.97	872.00
516.23	858.00
516.49	857.00
516.75	874.00
517.01	896.00
517.27	878.00
517.53	850.00
517.78	871.00
518.04	877.00
518.30	871.00
518.56	851.00
518.82	877.00
519.08	912.00
519.34	870.00
519.60	857.00
519.85	872.00
520.11	870.00
520.37	883.00
520.63	873.00
520.89	885.00
521.15	871.00
521.41	853.00
521.66	841.00
521.92	851.00
522.18	883.00
522.44	902.00
522.70	874.00
522.96	828.00
523.22	885.00
523.48	884.00
523.73	850.00
523.99	852.00
524.25	916.00
524.51	907.00
524.77	872.00
525.03	844.00
525.29	883.00
525.54	887.00
525.80	869.00
526.06	857.00
526.32	866.00
526.58	869.00
526.84	852.00
527.09	837.00
527.35	862.00
527.61	867.00
527.87	850.00
528.13	872.00
528.39	861.00
528.65	870.00
528.90	828.00
529.16	857.00
529.42	860.00
529.68	875.00
529.94	850.00
530.20	861.00
530.45	848.00
530.71	867.00
530.97	845.00
531.23	871.00
531.49	885.00
531.75	885.00
532.00	858.00
532.26	867.00
532.52	892.00
532.78	877.00
533.04	845.00
533.30	873.00
533.55	875.00
533.81	877.00
534.07	847.00
534.33	864.00
534.59	901.00
534.85	895.00
535.10	857.00
535.36	852.00
535.62	896.00
535.88	871.00
536.14	830.00
536.39	850.00
536.65	892.00
536.91	905.00
537.17	849.00
537.43	868.00
537.69	915.00
537.94	887.00
538.20	847.00
538.46	861.00
538.72	891.00
538.98	888.00
539.23	849.00
539.49	850.00
539.75	901.00
540.01	885.00
540.27	855.00
540.52	887.00
540.78	895.00
541.04	911.00
541.30	848.00
541.56	830.00
541.81	913.00
542.07	957.00
542.33	865.00
542.59	862.00
542.85	871.00
543.10	870.00
543.36	849.00
543.62	873.00
543.88	862.00
544.14	874.00
544.39	864.00
544.65	866.00
544.91	906.00
545.17	875.00
545.43	841.00
545.68	855.00
545.94	875.00
546.20	885.00
546.46	846.00
546.71	865.00
546.97	879.00
547.23	894.00
547.49	877.00
547.75	877.00
548.00	880.00
548.26	908.00
548.52	853.00
548.78	844.00
549.03	852.00
549.29	863.00
549.55	844.00
549.81	853.00
550.07	905.00
550.32	891.00
550.58	848.00
550.84	884.00
551.10	872.00
551.35	873.00
551.61	849.00
551.87	853.00
552.13	897.00
552.39	881.00
552.64	849.00
552.90	867.00
553.16	886.00
553.42	883.00
553.67	851.00
553.93	860.00
554.19	886.00
554.45	903.00
554.70	866.00
554.96	845.00
555.22	890.00
555.48	902.00
555.73	845.00
555.99	854.00
556.25	901.00
556.51	894.00
556.76	844.00
557.02	868.00
557.28	893.00
557.54	877.00
557.79	846.00
558.05	878.00
558.31	864.00
558.57	894.00
558.82	855.00
559.08	839.00
559.34	841.00
559.60	875.00
559.85	857.00
560.11	862.00
560.37	883.00
560.63	870.00
560.88	846.00
561.14	845.00
561.40	886.00
561.66	842.00
561.91	851.00
562.17	858.00
562.43	878.00
562.68	924.00
562.94	880.00
563.20	878.00
563.46	900.00
563.71	909.00
563.97	841.00
564.23	878.00
564.49	896.00
564.74	869.00
565.00	839.00
565.26	843.00
565.51	866.00
565.77	853.00
566.03	818.00
566.29	862.00
566.54	855.00
566.80	881.00
567.06	854.00
567.31	879.00
567.57	900.00
567.83	861.00
568.09	860.00
568.34	850.00
568.60	873.00
568.86	921.00
569.11	881.00
569.37	874.00
569.63	904.00
569.89	899.00
570.14	828.00
570.40	850.00
570.66	882.00
570.91	891.00
571.17	843.00
571.43	878.00
571.69	915.00
571.94	912.00
572.20	854.00
572.46	855.00
572.71	897.00
572.97	896.00
573.23	852.00
573.48	856.00
573.74	874.00
574.00	893.00
574.26	849.00
574.51	863.00
574.77	900.00
575.03	879.00
575.28	865.00
575.54	852.00
575.80	854.00
576.05	862.00
576.31	847.00
576.57	849.00
576.82	885.00
577.08	882.00
577.34	838.00
577.59	869.00
577.85	893.00
578.11	866.00
578.37	859.00
578.62	849.00
578.88	883.00
579.14	899.00
579.39	868.00
579.65	882.00
579.91	880.00
580.16	873.00
580.42	853.00
580.68	864.00
580.93	886.00
581.19	860.00
581.45	843.00
581.70	875.00
581.96	880.00
582.22	894.00
582.47	862.00
582.73	870.00
582.99	916.00
583.24	881.00
583.50	848.00
583.76	870.00
584.01	879.00
584.27	904.00
584.53	885.00
584.78	864.00
585.04	855.00
585.30	907.00
585.55	877.00
585.81	865.00
586.07	907.00
586.32	907.00
586.58	865.00
586.83	854.00
587.09	885.00
587.35	883.00
587.60	846.00
587.86	854.00
588.12	867.00
588.37	901.00
588.63	849.00
588.89	863.00
589.14	901.00
589.40	897.00
589.66	849.00
589.91	861.00
590.17	875.00
590.43	838.00
590.68	837.00
590.94	882.00
591.19	883.00
591.45	872.00
591.71	852.00
591.96	862.00
592.22	897.00
592.48	903.00
592.73	848.00
592.99	852.00
593.25	881.00
593.50	895.00
593.76	860.00
594.01	874.00
594.27	904.00
594.53	902.00
594.78	872.00
595.04	860.00
595.30	877.00
595.55	871.00
595.81	851.00
596.06	902.00
596.32	917.00
596.58	898.00
596.83	858.00
597.09	894.00
597.35	896.00
597.60	874.00
597.86	844.00
598.11	857.00
598.37	881.00
598.63	885.00
598.88	873.00
599.14	872.00
599.39	917.00
599.65	889.00
599.91	849.00
600.16	860.00
600.42	897.00
600.67	920.00
600.93	859.00
601.19	883.00
601.44	935.00
601.70	897.00
601.95	865.00
602.21	891.00
602.47	893.00
602.72	918.00
602.98	876.00
603.23	884.00
603.49	900.00
603.75	926.00
604.00	890.00
604.26	882.00
604.51	873.00
604.77	918.00
605.03	878.00
605.28	884.00
605.54	926.00
605.79	945.00
606.05	867.00
606.31	884.00
606.56	911.00
606.82	923.00
607.07	895.00
607.33	913.00
607.59	934.00
607.84	930.00
608.10	866.00
608.35	896.00
608.61	914.00
608.86	938.00
609.12	908.00
609.38	937.00
609.63	941.00
609.89	921.00
610.14	887.00
610.40	907.00
610.65	947.00
610.91	948.00
611.17	897.00
611.42	914.00
611.68	957.00
611.93	978.00
612.19	962.00
612.44	964.00
612.70	948.00
612.96	909.00
613.21	902.00
613.47	930.00
613.72	956.00
613.98	974.00
614.23	932.00
614.49	956.00
614.75	958.00
615.00	954.00
615.26	931.00
615.51	948.00
615.77	989.00
616.02	981.00
616.28	960.00
616.53	971.00
616.79	987.00
617.05	988.00
617.30	957.00
617.56	973.00
617.81	1036.00
618.07	1040.00
618.32	1014.00
618.58	1050.00
618.83	1055.00
619.09	1066.00
619.34	1028.00
619.60	1022.00
619.86	1074.00
620.11	1087.00
620.37	1060.00
620.62	1070.00
620.88	1100.00
621.13	1100.00
621.39	1072.00
621.64	1090.00
621.90	1120.00
622.15	1100.00
622.41	1099.00
622.66	1117.00
622.92	1146.00
623.18	1183.00
623.43	1165.00
623.69	1177.00
623.94	1195.00
624.20	1203.00
624.45	1216.00
624.71	1221.00
624.96	1252.00
625.22	1330.00
625.47	1337.00
625.73	1315.00
625.98	1312.00
626.24	1319.00
626.49	1311.00
626.75	1334.00
627.00	1377.00
627.26	1466.00
627.51	1456.00
627.77	1467.00
628.02	1465.00
628.28	1475.00
628.53	1451.00
628.79	1539.00
629.05	1615.00
629.30	1658.00
629.56	1636.00
629.81	1638.00
630.07	1630.00
630.32	1715.00
630.58	1786.00
630.83	1833.00
631.09	1844.00
631.34	1906.00
631.60	1983.00
631.85	2009.00
632.11	2073.00
632.36	1987.00
632.62	2008.00
632.87	2183.00
633.13	2241.00
633.38	2239.00
633.64	2210.00
633.89	2292.00
634.15	2318.00
634.40	2433.00
634.66	2501.00
634.91	2520.00
635.17	2619.00
635.42	2825.00
635.68	2938.00
635.93	2919.00
636.18	2840.00
636.44	2709.00
636.69	2808.00
636.95	2967.00
637.20	2970.00
637.46	2850.00
637.71	2824.00
637.97	2814.00
638.22	2817.00
638.48	2733.00
638.73	2746.00
638.99	2819.00
639.24	2850.00
639.50	2708.00
639.75	2544.00
640.01	2540.00
640.26	2562.00
640.52	2575.00
640.77	2462.00
641.03	2410.00
641.28	2359.00
641.54	2462.00
641.79	2576.00
642.04	2584.00
642.30	2527.00
642.55	2402.00
642.81	2216.00
643.06	2014.00
643.32	1954.00
643.57	1936.00
643.83	1833.00
644.08	1804.00
644.34	1838.00
644.59	1834.00
644.85	1815.00
645.10	1855.00
645.35	1839.00
645.61	1681.00
645.86	1532.00
646.12	1586.00
646.37	1655.00
646.63	1633.00
646.88	1480.00
647.14	1378.00
647.39	1325.00
647.65	1368.00
647.90	1356.00
648.15	1399.00
648.41	1391.00
648.66	1340.00
648.92	1257.00
649.17	1229.00
649.43	1202.00
649.68	1186.00
649.94	1149.00
650.19	1118.00
650.44	1158.00
650.70	1145.00
650.95	1109.00
651.21	1137.00
651.46	1127.00
651.72	1117.00
651.97	1098.00
652.23	1082.00
652.48	1080.00
652.73	1102.00
652.99	1038.00
653.24	1032.00
653.50	1009.00
653.75	1011.00
654.01	977.00
654.26	988.00
654.51	1001.00
654.77	1006.00
655.02	964.00
655.28	941.00
655.53	945.00
655.79	968.00
656.04	961.00
656.29	973.00
656.55	956.00
656.80	970.00
657.06	911.00
657.31	916.00
657.56	930.00
657.82	912.00
658.07	901.00
658.33	927.00
658.58	927.00
658.84	958.00
659.09	926.00
659.34	921.00
659.60	918.00
659.85	903.00
660.11	893.00
660.36	897.00
660.61	914.00
660.87	896.00
661.12	875.00
661.38	922.00
661.63	928.00
661.88	923.00
662.14	918.00
662.39	891.00
662.65	928.00
662.90	936.00
663.15	862.00
663.41	896.00
663.66	930.00
663.92	948.00
664.17	881.00
664.42	877.00
664.68	901.00
664.93	903.00
665.19	863.00
665.44	861.00
665.69	872.00
665.95	885.00
666.20	862.00
666.45	900.00
666.71	921.00
666.96	906.00
667.22	847.00
667.47	862.00
667.72	872.00
667.98	900.00
668.23	862.00
668.49	891.00
668.74	898.00
668.99	892.00
669.25	863.00
669.50	868.00
669.75	885.00
670.01	900.00
670.26	840.00
670.52	878.00
670.77	908.00
671.02	893.00
671.28	867.00
671.53	894.00
671.78	910.00
672.04	887.00
672.29	863.00
672.54	849.00
672.80	878.00
673.05	896.00
673.31	852.00
673.56	888.00
673.81	913.00
674.07	892.00
674.32	854.00
674.57	862.00
674.83	856.00
675.08	884.00
675.33	866.00
675.59	857.00
675.84	874.00
676.09	874.00
676.35	861.00
676.60	853.00
676.86	869.00
677.11	890.00
677.36	864.00
677.62	882.00
677.87	924.00
678.12	927.00
678.38	842.00
678.63	870.00
678.88	906.00
679.14	908.00
679.39	834.00
679.64	885.00
679.90	874.00
680.15	910.00
680.40	883.00
680.66	852.00
680.91	862.00
681.16	888.00
681.42	856.00
681.67	871.00
681.92	882.00
682.18	913.00
682.43	849.00
682.68	853.00
682.94	871.00
683.19	858.00
683.44	844.00
683.70	870.00
683.95	873.00
684.20	872.00
684.46	871.00
684.71	873.00
684.96	867.00
685.22	890.00
685.47	871.00
685.72	868.00
685.98	883.00
686.23	850.00
686.48	837.00
686.74	882.00
686.99	895.00
687.24	889.00
687.50	850.00
687.75	846.00
688.00	862.00
688.25	882.00
688.51	867.00
688.76	877.00
689.01	866.00
689.27	860.00
689.52	829.00
689.77	882.00
690.03	866.00
690.28	855.00
690.53	846.00
690.79	873.00
691.04	891.00
691.29	886.00
691.54	828.00
691.80	857.00
692.05	886.00
692.30	875.00
692.56	856.00
692.81	887.00
693.06	866.00
693.32	846.00
693.57	854.00
693.82	896.00
694.07	889.00
694.33	884.00
694.58	844.00
694.83	873.00
695.09	861.00
695.34	900.00
695.59	865.00
695.84	864.00
696.10	877.00
696.35	888.00
696.60	836.00
696.86	833.00
697.11	879.00
697.36	889.00
697.61	845.00
697.87	866.00
698.12	874.00
698.37	875.00
698.63	868.00
698.88	847.00
699.13	886.00
699.38	873.00
699.64	842.00
699.89	861.00
700.14	864.00
700.39	877.00
700.65	859.00
700.90	880.00
701.15	859.00
701.40	877.00
701.66	855.00
701.91	856.00
702.16	844.00
702.42	854.00
702.67	829.00
702.92	845.00
703.17	851.00
703.43	868.00
703.68	863.00
703.93	889.00
704.18	916.00
704.44	886.00
704.69	859.00
704.94	865.00
705.19	872.00
705.45	890.00
705.70	855.00
705.95	845.00
706.20	843.00
706.46	873.00
706.71	844.00
706.96	850.00
707.21	868.00
707.47	873.00
707.72	848.00
707.97	868.00
708.22	880.00
708.48	901.00
708.73	859.00
708.98	856.00
709.23	869.00
709.49	875.00
709.74	848.00
709.99	849.00
710.24	867.00
710.50	884.00
710.75	877.00
711.00	884.00
711.25	880.00
711.50	881.00
711.76	844.00
712.01	856.00
712.26	842.00
712.51	868.00
712.77	846.00
713.02	849.00
713.27	861.00
713.52	869.00
713.78	850.00
714.03	869.00
714.28	853.00
714.53	867.00
714.78	853.00
715.04	869.00
715.29	886.00
715.54	893.00
715.79	828.00
716.05	861.00
716.30	886.00
716.55	891.00
716.80	869.00
717.05	881.00
717.31	874.00
717.56	882.00
717.81	856.00
718.06	846.00
718.31	853.00
718.57	883.00
718.82	849.00
719.07	892.00
719.32	871.00
719.57	884.00
719.83	841.00
720.08	858.00
720.33	860.00
720.58	849.00
720.83	825.00
721.09	898.00
721.34	895.00
721.59	903.00
721.84	845.00
722.09	859.00
722.35	880.00
722.60	857.00
722.85	822.00
723.10	860.00
723.35	846.00
723.61	881.00
723.86	886.00
724.11	865.00
724.36	858.00
724.61	853.00
724.87	847.00
725.12	839.00
725.37	841.00
725.62	860.00
725.87	856.00
726.12	857.00
726.38	850.00
726.63	852.00
726.88	841.00
727.13	857.00
727.38	858.00
727.64	881.00
727.89	851.00
728.14	852.00
728.39	842.00
728.64	872.00
728.89	855.00
729.15	878.00
729.40	889.00
729.65	893.00
729.90	835.00
730.15	862.00
730.40	872.00
730.66	875.00
730.91	832.00
731.16	853.00
731.41	856.00
731.66	866.00
731.91	849.00
732.17	894.00
732.42	904.00
732.67	877.00
732.92	843.00
733.17	868.00
733.42	876.00
733.68	852.00
733.93	827.00
734.18	861.00
734.43	847.00
734.68	865.00
734.93	843.00
735.18	873.00
735.44	870.00
735.69	881.00
735.94	829.00
736.19	867.00
736.44	862.00
736.69	903.00
736.95	859.00
737.20	880.00
737.45	889.00
737.70	878.00
737.95	877.00
738.20	877.00
738.45	881.00
738.70	868.00
738.96	863.00
739.21	893.00
739.46	886.00
739.71	899.00
739.96	877.00
740.21	882.00
740.46	944.00
740.72	908.00
740.97	860.00
741.22	897.00
741.47	872.00
741.72	889.00
741.97	838.00
742.22	860.00
742.47	876.00
742.73	859.00
742.98	840.00
743.23	840.00
743.48	841.00
743.73	884.00
743.98	854.00
744.23	862.00
744.48	863.00
744.74	856.00
744.99	850.00
745.24	872.00
745.49	860.00
745.74	889.00
745.99	844.00
746.24	867.00
746.49	854.00
746.74	851.00
747.00	861.00
747.25	887.00
747.50	844.00
747.75	857.00
748.00	817.00
748.25	847.00
748.50	862.00
748.75	898.00
749.00	886.00
749.26	906.00
749.51	881.00
749.76	877.00
750.01	838.00
750.26	873.00
750.51	887.00
750.76	878.00
751.01	840.00
751.26	860.00
751.51	891.00
751.77	884.00
752.02	854.00
752.27	852.00
752.52	859.00
752.77	885.00
753.02	852.00
753.27	868.00
753.52	874.00
753.77	850.00
754.02	838.00
754.27	851.00
754.52	839.00
754.78	869.00
755.03	830.00
755.28	841.00
755.53	849.00
755.78	857.00
756.03	826.00
756.28	856.00
756.53	865.00
756.78	882.00
757.03	865.00
757.28	884.00
757.53	866.00
757.79	837.00
758.04	828.00
758.29	890.00
758.54	894.00
758.79	892.00
759.04	838.00
759.29	838.00
759.54	856.00
759.79	857.00
760.04	859.00
760.29	866.00
760.54	860.00
760.79	858.00
761.04	827.00
761.29	857.00
761.55	864.00
761.80	883.00
762.05	842.00
762.30	857.00
762.55	864.00
762.80	880.00
763.05	875.00
763.30	888.00
763.55	881.00
763.80	876.00
764.05	825.00
764.30	873.00
764.55	897.00
764.80	866.00
765.05	837.00
765.30	875.00
765.55	868.00
765.80	865.00
766.05	826.00
766.30	870.00
766.56	864.00
766.81	874.00
767.06	855.00
767.31	873.00
767.56	862.00
767.81	878.00
768.06	846.00
768.31	869.00
768.56	878.00
768.81	917.00
769.06	841.00
769.31	861.00
769.56	851.00
769.81	877.00
770.06	840.00
770.31	843.00
770.56	883.00
770.81	850.00
771.06	824.00
771.31	862.00
771.56	852.00
771.81	886.00
772.06	836.00
772.31	862.00
772.56	884.00
772.81	878.00
773.06	849.00
773.31	880.00
773.56	869.00
773.81	844.00
774.06	838.00
774.31	856.00
774.56	871.00
774.81	882.00
775.06	866.00
775.31	889.00
775.56	880.00
775.81	862.00
776.06	829.00
776.31	862.00
776.56	877.00
776.82	866.00
777.07	843.00
777.32	853.00
777.57	868.00
777.82	907.00
778.07	846.00
778.32	849.00
778.57	891.00
778.82	896.00
779.07	868.00
779.32	873.00
779.57	844.00
779.82	872.00
780.07	853.00
780.32	887.00
780.56	873.00
780.81	909.00
781.06	845.00
781.31	848.00
781.56	889.00
781.81	883.00
782.06	853.00
782.31	875.00
782.56	855.00
782.81	885.00
783.06	848.00
783.31	846.00
783.56	856.00
783.81	882.00
784.06	868.00
784.31	868.00
784.56	843.00
784.81	900.00
785.06	859.00
785.31	876.00
785.56	841.00
785.81	845.00
786.06	839.00
786.31	869.00
786.56	851.00
786.81	866.00
787.06	875.00
787.31	873.00
787.56	851.00
787.81	843.00
788.06	829.00
788.31	860.00
788.56	849.00
788.81	880.00
789.06	853.00
789.31	867.00
789.56	869.00
789.81	878.00
790.06	833.00
790.31	880.00
790.56	852.00
790.80	864.00
791.05	854.00
791.30	843.00
791.55	849.00
791.80	865.00
792.05	869.00
792.30	860.00
792.55	855.00
792.80	873.00
793.05	840.00
793.30	849.00
793.55	850.00
793.80	860.00
794.05	835.00
794.30	858.00
794.55	854.00
794.80	884.00
795.05	857.00
795.30	854.00
795.54	839.00
795.79	872.00
796.04	844.00
796.29	874.00
796.54	862.00
796.79	881.00
797.04	859.00
797.29	880.00
797.54	880.00
797.79	869.00
798.04	860.00
798.29	854.00
798.54	844.00
798.79	850.00
799.04	844.00
799.29	870.00
799.53	868.00
799.78	861.00
800.03	844.00
800.28	850.00
800.53	852.00
800.78	900.00
801.03	864.00
801.28	877.00
801.53	844.00
801.78	877.00
802.03	839.00
802.28	853.00
802.52	871.00
802.77	872.00
803.02	869.00
803.27	888.00
803.52	848.00
803.77	867.00
804.02	863.00
804.27	872.00
804.52	874.00
804.77	896.00
805.02	873.00
805.27	879.00
805.51	845.00
805.76	872.00
806.01	845.00
806.26	844.00
806.51	861.00
806.76	891.00
807.01	859.00
807.26	840.00
807.51	862.00
807.76	848.00
808.00	833.00
808.25	876.00
808.50	882.00
808.75	863.00
809.00	835.00
809.25	853.00
809.50	870.00
809.75	905.00
810.00	877.00
810.24	849.00
810.49	828.00
810.74	857.00
810.99	856.00
811.24	863.00
811.49	875.00
811.74	876.00
811.99	821.00
812.24	871.00
812.48	853.00
812.73	828.00
812.98	812.00
813.23	840.00
813.48	868.00
813.73	869.00
813.98	829.00
814.23	846.00
814.47	846.00
814.72	853.00
814.97	814.00
815.22	850.00
815.47	838.00
815.72	855.00
815.97	827.00
816.22	860.00
816.46	847.00
816.71	878.00
816.96	855.00
817.21	862.00
817.46	854.00
817.71	862.00
817.96	863.00
818.20	855.00
818.45	850.00
818.70	867.00
818.95	830.00
819.20	850.00
819.45	856.00
819.70	870.00
819.94	841.00
820.19	845.00
820.44	861.00
820.69	892.00
820.94	875.00
821.19	891.00
821.44	926.00
821.68	919.00
821.93	849.00
822.18	867.00
822.43	878.00
822.68	882.00
822.93	842.00
823.17	848.00
823.42	862.00
823.67	856.00
823.92	836.00
824.17	863.00
824.42	871.00
824.67	884.00
824.91	859.00
825.16	857.00
825.41	867.00
825.66	869.00
825.91	839.00
826.16	864.00
826.40	874.00
826.65	876.00
826.90	849.00
827.15	865.00
827.40	851.00
827.65	881.00
827.89	821.00
828.14	860.00
828.39	879.00
828.64	859.00
828.89	837.00
829.13	844.00
829.38	831.00
829.63	858.00
829.88	832.00
830.13	846.00
830.38	849.00
830.62	847.00
830.87	849.00
831.12	871.00
831.37	880.00
831.62	895.00
831.86	853.00
832.11	862.00
832.36	851.00
832.61	875.00
832.86	837.00
833.10	866.00
833.35	860.00
833.60	887.00
833.85	857.00
834.10	862.00
834.35	893.00
834.59	896.00
834.84	844.00
835.09	876.00
835.34	848.00
835.59	868.00
835.83	856.00
836.08	881.00
836.33	865.00
836.58	872.00
836.83	832.00
837.07	846.00
837.32	856.00
837.57	849.00
837.82	850.00
838.06	877.00
838.31	902.00
838.56	905.00
838.81	844.00
839.06	862.00
839.30	858.00
839.55	883.00
839.80	847.00
840.05	852.00
840.30	866.00
840.54	897.00
840.79	843.00
841.04	871.00
841.29	878.00
841.53	880.00
841.78	850.00
842.03	836.00
842.28	837.00
842.53	852.00
842.77	855.00
843.02	869.00
843.27	865.00
843.52	873.00
843.76	862.00
844.01	877.00
844.26	870.00
844.51	881.00
844.75	851.00
845.00	834.00
845.25	850.00
845.50	881.00
845.75	856.00
845.99	866.00
846.24	865.00
846.49	868.00
846.74	845.00
846.98	853.00
847.23	865.00
847.48	885.00
847.73	843.00
847.97	856.00
848.22	898.00
848.47	894.00
848.72	857.00
848.96	867.00
849.21	882.00
849.46	852.00
849.71	853.00
849.95	864.00
850.20	840.00
850.45	884.00
850.70	842.00
850.94	866.00
851.19	862.00
851.44	869.00
851.69	824.00
851.93	852.00
852.18	869.00
852.43	873.00
852.68	851.00
852.92	880.00
853.17	898.00
853.42	891.00
853.66	859.00
853.91	890.00
854.16	871.00
854.41	900.00
854.65	865.00
854.90	856.00
855.15	865.00
855.40	874.00
855.64	848.00
855.89	859.00
856.14	867.00
856.39	858.00
856.63	848.00
856.88	858.00
857.13	854.00
857.37	863.00
857.62	834.00
857.87	826.00
858.12	845.00
858.36	902.00
858.61	825.00
858.86	842.00
859.10	859.00
859.35	857.00
859.60	834.00
859.85	828.00
860.09	825.00
860.34	866.00
860.59	859.00
860.83	858.00
861.08	865.00
861.33	909.00
861.58	857.00
861.82	853.00
862.07	874.00
862.32	877.00
862.56	839.00
862.81	852.00
863.06	869.00
863.30	854.00
863.55	869.00
863.80	889.00
864.05	882.00
864.29	859.00
864.54	846.00
864.79	867.00
865.03	852.00
865.28	875.00
865.53	840.00
865.77	830.00
866.02	870.00
866.27	885.00
866.51	853.00
866.76	836.00
867.01	826.00
867.26	870.00
867.50	840.00
867.75	836.00
868.00	869.00
868.24	877.00
868.49	827.00
868.74	841.00
868.98	844.00
869.23	867.00
869.48	853.00
869.72	855.00
869.97	847.00
870.22	880.00
870.46	866.00
870.71	871.00
870.96	878.00
871.20	884.00
871.45	837.00
871.70	869.00
871.94	895.00
872.19	888.00
872.44	865.00
872.68	846.00
872.93	857.00
873.18	865.00
873.42	844.00
873.67	869.00
873.92	887.00
874.16	859.00
874.41	848.00
874.66	875.00
874.90	871.00
875.15	875.00
875.40	880.00
875.64	870.00
875.89	875.00
876.14	899.00
876.38	860.00
876.63	858.00
876.88	872.00
877.12	859.00
877.37	829.00
877.62	870.00
877.86	858.00
878.11	868.00
878.36	835.00
878.60	856.00
878.85	858.00
879.09	872.00
879.34	841.00
879.59	880.00
879.83	902.00
880.08	917.00
880.33	881.00
880.57	864.00
880.82	889.00
881.07	880.00
881.31	851.00
881.56	852.00
881.80	857.00
882.05	863.00
882.30	829.00
882.54	849.00
882.79	894.00
883.04	914.00
883.28	867.00
883.53	871.00
883.77	861.00
884.02	874.00
884.27	826.00
884.51	840.00
884.76	854.00
885.01	890.00
885.25	842.00
885.50	863.00
885.74	851.00
885.99	880.00
886.24	859.00
886.48	872.00
886.73	882.00
886.98	903.00
887.22	873.00
887.47	852.00
887.71	869.00
887.96	877.00
888.21	865.00
888.45	863.00
888.70	855.00
888.94	883.00
889.19	841.00
889.44	858.00
889.68	870.00
889.93	891.00
890.17	857.00
890.42	844.00
890.67	890.00
890.91	943.00
891.16	850.00
891.40	837.00
891.65	843.00
891.90	878.00
892.14	821.00
892.39	854.00
892.63	862.00
892.88	880.00
893.13	868.00
893.37	840.00
893.62	838.00
893.86	881.00
894.11	858.00
894.36	871.00
894.60	851.00
894.85	850.00
895.09	857.00
895.34	883.00
895.59	872.00
895.83	863.00
896.08	849.00
896.32	840.00
896.57	846.00
896.81	861.00
897.06	845.00
897.31	859.00
897.55	884.00
897.80	866.00
898.04	828.00
898.29	864.00
898.53	877.00
898.78	868.00
899.03	848.00
899.27	857.00
899.52	884.00
899.76	899.00
900.01	849.00
900.25	863.00
900.50	874.00
900.75	890.00
900.99	856.00
901.24	902.00
901.48	866.00
901.73	852.00
901.97	835.00
902.22	865.00
902.47	873.00
902.71	864.00
902.96	837.00
903.20	852.00
903.45	877.00
903.69	890.00
903.94	856.00
904.18	849.00
904.43	868.00
904.68	875.00
904.92	836.00
905.17	852.00
905.41	875.00
905.66	876.00
905.90	863.00
906.15	865.00
906.39	857.00
906.64	879.00
906.88	830.00
907.13	852.00
907.38	876.00
907.62	901.00
907.87	852.00
908.11	873.00
908.36	849.00
908.60	864.00
908.85	802.00
909.09	835.00
909.34	861.00
909.58	880.00
909.83	836.00
910.07	846.00
910.32	897.00
910.56	902.00
910.81	847.00
911.06	870.00
911.30	864.00
911.55	864.00
911.79	832.00
912.04	837.00
912.28	844.00
912.53	878.00
912.77	869.00
913.02	866.00
913.26	865.00
913.51	860.00
913.75	850.00
914.00	842.00
914.24	849.00
914.49	875.00
914.73	845.00
914.98	861.00
915.22	890.00
915.47	868.00
915.71	845.00
915.96	858.00
916.20	845.00
916.45	836.00
916.69	827.00
916.94	851.00
917.18	866.00
917.43	883.00
917.67	847.00
917.92	841.00
918.16	870.00
918.41	878.00
918.65	835.00
918.90	843.00
919.14	835.00
919.39	860.00
919.63	842.00
919.88	846.00
920.12	868.00
920.37	848.00
920.61	814.00
920.86	874.00
921.10	893.00
921.35	852.00
921.59	836.00
921.84	860.00
922.08	883.00
922.33	897.00
922.57	841.00
922.82	836.00
923.06	846.00
923.31	868.00
923.55	840.00
923.80	851.00
924.04	849.00
924.29	875.00
924.53	840.00
924.78	856.00
925.02	850.00
925.27	854.00
925.51	845.00
925.76	882.00
926.00	865.00
926.25	855.00
926.49	854.00
926.73	872.00
926.98	875.00
927.22	893.00
927.47	874.00
927.71	860.00
927.96	870.00
928.20	876.00
928.45	874.00
928.69	898.00
928.94	871.00
929.18	867.00
929.43	874.00
929.67	848.00
929.91	859.00
930.16	869.00
930.40	827.00
930.65	840.00
930.89	871.00
931.14	897.00
931.38	869.00
931.63	877.00
931.87	876.00
932.12	863.00
932.36	826.00
932.60	856.00
932.85	864.00
933.09	853.00
933.34	829.00
933.58	858.00
933.83	859.00
934.07	870.00
934.32	854.00
934.56	865.00
934.80	888.00
935.05	896.00
935.29	859.00
935.54	862.00
935.78	869.00
936.03	870.00
936.27	817.00
936.52	839.00
936.76	860.00
937.00	864.00
937.25	852.00
937.49	857.00
937.74	876.00
937.98	872.00
938.23	817.00
938.47	838.00
938.71	844.00
938.96	847.00
939.20	828.00
939.45	844.00
939.69	853.00
939.94	877.00
940.18	830.00
940.42	859.00
940.67	865.00
940.91	862.00
941.16	854.00
941.40	843.00
941.64	852.00
941.89	854.00
942.13	822.00
942.38	851.00
942.62	935.00
942.87	900.00
943.11	874.00
943.35	863.00
943.60	866.00
943.84	893.00
944.09	846.00
944.33	885.00
944.57	893.00
944.82	872.00
945.06	828.00
945.31	858.00
945.55	855.00
945.79	889.00
946.04	842.00
946.28	835.00
946.53	846.00
946.77	880.00
947.01	833.00
947.26	868.00
947.50	858.00
947.75	864.00
947.99	848.00
948.23	872.00
948.48	881.00
948.72	867.00
948.97	843.00
949.21	839.00
949.45	847.00
949.70	884.00
949.94	856.00
950.18	859.00
950.43	847.00
950.67	869.00
950.92	853.00
951.16	836.00
951.40	848.00
951.65	869.00
951.89	861.00
952.13	868.00
952.38	864.00
952.62	873.00
952.87	846.00
953.11	878.00
953.35	899.00
953.60	873.00
953.84	807.00
954.08	821.00
954.33	866.00
954.57	895.00
954.82	873.00
955.06	851.00
955.30	858.00
955.55	844.00
955.79	841.00
956.03	858.00
956.28	861.00
956.52	863.00
956.76	865.00
957.01	878.00
957.25	850.00
957.50	836.00
957.74	825.00
957.98	839.00
958.23	867.00
958.47	868.00
958.71	866.00
958.96	884.00
959.20	905.00
959.44	874.00
959.69	843.00
959.93	861.00
960.17	881.00
960.42	889.00
960.66	854.00
960.90	875.00
961.15	845.00
961.39	873.00
961.64	841.00
961.88	836.00
962.12	868.00
962.37	873.00
962.61	852.00
962.85	844.00
963.10	870.00
963.34	879.00
963.58	844.00
963.83	860.00
964.07	868.00
964.31	867.00
964.56	869.00
964.80	850.00
965.04	866.00
965.29	882.00
965.53	857.00
965.77	860.00
966.02	828.00
966.26	864.00
966.50	840.00
966.74	867.00
966.99	888.00
967.23	888.00
967.47	855.00
967.72	874.00
967.96	860.00
968.20	857.00
968.45	820.00
968.69	828.00
968.93	855.00
969.18	882.00
969.42	873.00
969.66	870.00
969.91	856.00
970.15	888.00
970.39	841.00
970.64	855.00
970.88	878.00
971.12	863.00
971.36	854.00
971.61	845.00
971.85	854.00
972.09	863.00
972.34	826.00
972.58	844.00
972.82	872.00
973.07	895.00
973.31	829.00
973.55	837.00
973.79	887.00
974.04	904.00
974.28	859.00
974.52	868.00
974.77	869.00
975.01	890.00
975.25	857.00
975.50	868.00
975.74	883.00
975.98	890.00
976.22	859.00
976.47	845.00
976.71	857.00
976.95	870.00
977.20	858.00
977.44	864.00
977.68	856.00
977.92	882.00
978.17	840.00
978.41	843.00
978.65	879.00
978.90	848.00
979.14	854.00
979.38	860.00
979.62	843.00
979.87	856.00
980.11	827.00
980.35	844.00
980.59	873.00
980.84	867.00
981.08	839.00
981.32	838.00
981.57	863.00
981.81	876.00
982.05	849.00
982.29	856.00
982.54	854.00
982.78	860.00
983.02	846.00
983.26	863.00
983.51	864.00
983.75	887.00
983.99	837.00
984.23	864.00
984.48	876.00
984.72	886.00
984.96	824.00
985.20	830.00
985.45	899.00
985.69	890.00
985.93	862.00
986.17	879.00
986.42	882.00
986.66	863.00
986.90	816.00
987.14	828.00
987.39	857.00
987.63	856.00
987.87	832.00
988.11	845.00
988.36	876.00
988.60	862.00
988.84	872.00
989.08	853.00
989.33	888.00
989.57	872.00
989.81	830.00
990.05	825.00
990.30	834.00
990.54	844.00
990.78	840.00
991.02	831.00
991.27	862.00
991.51	873.00
991.75	843.00
991.99	883.00
992.23	848.00
992.48	844.00
992.72	827.00
992.96	853.00
993.20	826.00
993.45	868.00
993.69	858.00
993.93	827.00
994.17	863.00
994.41	870.00
994.66	843.00
994.90	856.00
995.14	882.00
995.38	865.00
995.63	849.00
995.87	858.00
996.11	897.00
996.35	885.00
996.59	824.00
996.84	841.00
997.08	877.00
997.32	880.00
997.56	858.00
997.80	829.00
998.05	831.00
998.29	849.00
998.53	832.00
998.77	849.00
999.01	876.00
999.26	872.00
999.50	845.00
999.74	842.00
999.98	865.00
1000.22	885.00
1000.47	822.00
1000.71	848.00
1000.95	878.00
1001.19	871.00
1001.43	860.00
1001.68	865.00
1001.92	886.00
1002.16	858.00
1002.40	831.00
1002.64	838.00
1002.89	845.00
1003.13	869.00
1003.37	847.00
1003.61	850.00
1003.85	859.00
1004.10	858.00
1004.34	854.00
1004.58	846.00
1004.82	866.00
1005.06	874.00
1005.30	849.00
1005.55	846.00
1005.79	881.00
1006.03	864.00
1006.27	860.00
1006.51	853.00
1006.76	866.00
1007.00	887.00
1007.24	869.00
1007.48	865.00
1007.72	878.00
1007.96	870.00
1008.21	860.00
1008.45	867.00
1008.69	877.00
1008.93	885.00
1009.17	854.00
1009.41	884.00
1009.66	901.00
1009.90	868.00
1010.14	838.00
1010.38	862.00
1010.62	892.00
1010.86	899.00
1011.10	859.00
1011.35	849.00
1011.59	848.00
1011.83	841.00
1012.07	826.00
1012.31	861.00
1012.55	870.00
1012.80	874.00
1013.04	852.00
1013.28	851.00
1013.52	849.00
1013.76	874.00
1014.00	842.00
1014.24	852.00
1014.49	886.00
1014.73	914.00
1014.97	880.00
1015.21	868.00
1015.45	884.00
1015.69	864.00
1015.93	862.00
1016.18	859.00
1016.42	883.00
1016.66	885.00
1016.90	831.00
1017.14	827.00
1017.38	833.00
1017.62	869.00
1017.87	854.00
1018.11	853.00
1018.35	877.00
1018.59	865.00
1018.83	822.00
1019.07	845.00
1019.31	862.00
1019.55	883.00
1019.80	851.00
1020.04	849.00
1020.28	848.00
1020.52	888.00
1020.76	827.00
1021.00	818.00
1021.24	839.00
1021.48	841.00
1021.73	841.00
1021.97	851.00
1022.21	858.00
1022.45	868.00
1022.69	848.00
1022.93	833.00
1023.17	874.00
1023.41	913.00
1023.65	869.00
1023.90	881.00
1024.14	886.00
1024.38	850.00
1024.62	825.00
1024.86	855.00
1025.10	877.00
1025.34	868.00
1025.58	844.00
1025.82	853.00
1026.07	882.00
1026.31	885.00
1026.55	839.00
1026.79	833.00
1027.03	853.00
1027.27	860.00
1027.51	812.00
1027.75	814.00
1027.99	841.00
1028.23	896.00
1028.47	869.00
1028.72	848.00
1028.96	870.00
1029.20	876.00
1029.44	855.00
1029.68	841.00
1029.92	861.00
1030.16	890.00
1030.40	817.00
1030.64	852.00
1030.88	854.00
1031.12	849.00
1031.37	824.00
1031.61	861.00
1031.85	896.00
1032.09	897.00
1032.33	849.00
1032.57	902.00
1032.81	863.00
1033.05	867.00
1033.29	854.00
1033.53	853.00
1033.77	914.00
1034.01	901.00
1034.25	881.00
1034.50	866.00
1034.74	871.00
1034.98	901.00
1035.22	860.00
1035.46	858.00
1035.70	879.00
1035.94	878.00
1036.18	850.00
1036.42	844.00
1036.66	845.00
1036.90	856.00
1037.14	833.00
1037.38	844.00
1037.62	878.00
1037.86	856.00
1038.10	849.00
1038.35	843.00
1038.59	874.00
1038.83	870.00
1039.07	877.00
1039.31	889.00
1039.55	852.00
1039.79	872.00
1040.03	835.00
1040.27	837.00
1040.51	885.00
1040.75	892.00
1040.99	862.00
1041.23	866.00
1041.47	845.00
1041.71	883.00
1041.95	850.00
1042.19	857.00
1042.43	890.00
1042.67	891.00
1042.91	859.00
1043.15	841.00
1043.39	906.00
1043.64	880.00
1043.88	849.00
1044.12	858.00
1044.36	910.00
1044.60	897.00
1044.84	855.00
1045.08	871.00
1045.32	860.00
1045.56	878.00
1045.80	858.00
1046.04	840.00
1046.28	882.00
1046.52	874.00
1046.76	826.00
1047.00	836.00
1047.24	858.00
1047.48	870.00
1047.72	845.00
1047.96	848.00
1048.20	873.00
1048.44	866.00
1048.68	827.00
1048.92	860.00
1049.16	857.00
1049.40	885.00
1049.64	854.00
1049.88	879.00
1050.12	893.00
1050.36	901.00
1050.60	856.00
1050.84	858.00
1051.08	862.00
1051.32	848.00
1051.56	858.00
1051.80	862.00
1052.04	880.00
1052.28	893.00
1052.52	848.00
1052.76	834.00
1053.00	853.00
1053.24	883.00
1053.48	841.00
1053.72	849.00
1053.96	863.00
1054.20	859.00
1054.44	848.00
1054.68	874.00
1054.92	878.00
1055.16	841.00
1055.40	847.00
1055.64	880.00
1055.88	889.00
1056.12	905.00
1056.36	830.00
1056.60	847.00
1056.84	880.00
1057.08	874.00
1057.32	849.00
1057.56	846.00
1057.80	864.00
1058.04	887.00
1058.28	840.00
1058.52	852.00
1058.76	890.00
1059.00	894.00
1059.24	826.00
1059.48	836.00
1059.72	875.00
1059.96	874.00
1060.20	861.00
1060.44	878.00
1060.68	909.00
1060.92	876.00
1061.16	818.00
1061.40	846.00
1061.64	859.00
1061.88	862.00
1062.11	841.00
1062.35	829.00
1062.59	853.00
1062.83	893.00
1063.07	848.00
1063.31	821.00
1063.55	849.00
1063.79	889.00
1064.03	845.00
1064.27	859.00
1064.51	869.00
1064.75	868.00
1064.99	861.00
1065.23	864.00
1065.47	855.00
1065.71	878.00
1065.95	853.00
1066.19	856.00
1066.43	873.00
1066.67	883.00
1066.91	857.00
1067.15	842.00
1067.38	856.00
1067.62	866.00
1067.86	842.00
1068.10	871.00
1068.34	900.00
1068.58	910.00
1068.82	840.00
1069.06	814.00
1069.30	861.00
1069.54	888.00
1069.78	858.00
1070.02	846.00
1070.26	879.00
1070.50	908.00
1070.74	858.00
1070.98	873.00
1071.21	877.00
1071.45	871.00
1071.69	834.00
1071.93	860.00
1072.17	882.00
1072.41	871.00
1072.65	866.00
1072.89	868.00
1073.13	880.00
1073.37	862.00
1073.61	837.00
1073.85	866.00
1074.09	864.00
1074.32	856.00
1074.56	856.00
1074.80	923.00
1075.04	1124.00
1075.28	977.00
1075.52	842.00
1075.76	847.00
1076.00	880.00
1076.24	873.00
1076.48	856.00
1076.72	868.00
1076.96	894.00
1077.19	884.00
1077.43	842.00
1077.67	871.00
1077.91	875.00
1078.15	844.00
1078.39	859.00
1078.63	857.00
1078.87	867.00
1079.11	871.00
1079.35	828.00
1079.58	840.00
1079.82	864.00
1080.06	855.00
1080.30	824.00
1080.54	860.00
1080.78	884.00
1081.02	872.00
1081.26	866.00
1081.50	877.00
1081.74	891.00
1081.97	881.00
1082.21	855.00
1082.45	865.00
1082.69	875.00
1082.93	857.00
1083.17	862.00
1083.41	854.00
1083.65	892.00
1083.88	900.00
1084.12	864.00
1084.36	868.00
1084.60	870.00
1084.84	877.00
1085.08	832.00
1085.32	842.00
1085.56	881.00
1085.80	878.00
1086.03	847.00
1086.27	829.00
1086.51	844.00
1086.75	868.00
1086.99	844.00
1087.23	821.00
1087.47	864.00
1087.70	862.00
1087.94	848.00
1088.18	887.00
1088.42	908.00
1088.66	882.00
1088.90	833.00
1089.14	858.00
1089.38	852.00
1089.61	869.00
1089.85	848.00
1090.09	831.00
1090.33	882.00
1090.57	910.00
1090.81	816.00
1091.05	845.00
1091.28	868.00
1091.52	882.00
1091.76	838.00
1092.00	849.00
1092.24	863.00
1092.48	892.00
1092.71	829.00
1092.95	859.00
1093.19	886.00
1093.43	872.00
1093.67	834.00
1093.91	866.00
1094.15	863.00
1094.38	889.00
1094.62	830.00
1094.86	845.00
1095.10	852.00
1095.34	850.00
1095.58	838.00
1095.81	852.00
1096.05	900.00
1096.29	898.00
1096.53	830.00
1096.77	851.00
1097.01	849.00
1097.24	892.00
1097.48	836.00
1097.72	869.00
1097.96	871.00
1098.20	880.00
1098.44	832.00
1098.67	820.00
1098.91	877.00
1099.15	870.00
1099.39	830.00
1099.63	856.00
1099.86	881.00
1100.10	875.00
1100.34	853.00
1100.58	851.00
1100.82	878.00
1101.06	871.00
1101.29	822.00
1101.53	852.00
1101.77	863.00
1102.01	861.00
1102.25	856.00
1102.48	863.00
1102.72	911.00
1102.96	878.00
1103.20	835.00
1103.44	849.00
1103.67	854.00
1103.91	853.00
1104.15	832.00
1104.39	849.00
1104.63	865.00
1104.86	832.00
1105.10	825.00
1105.34	860.00
1105.58	855.00
1105.82	862.00
1106.05	841.00
1106.29	862.00
1106.53	858.00
1106.77	902.00
1107.01	850.00
1107.24	867.00
1107.48	909.00
1107.72	884.00
1107.96	829.00
1108.20	863.00
1108.43	861.00
1108.67	851.00
1108.91	841.00
1109.15	845.00
1109.39	857.00
1109.62	855.00
1109.86	818.00
1110.10	836.00
1110.34	910.00
1110.57	925.00
1110.81	860.00
1111.05	868.00
1111.29	893.00
1111.53	900.00
1111.76	855.00
1112.00	891.00
1112.24	888.00
1112.48	872.00
1112.71	827.00
1112.95	849.00
1113.19	887.00
1113.43	869.00
1113.66	819.00
1113.90	870.00
1114.14	870.00
1114.38	873.00
1114.62	840.00
1114.85	865.00
1115.09	877.00
1115.33	917.00
1115.57	860.00
1115.80	839.00
1116.04	858.00
1116.28	881.00
1116.52	849.00
1116.75	856.00
1116.99	880.00
1117.23	890.00
1117.47	855.00
1117.70	874.00
1117.94	922.00
1118.18	866.00
1118.42	850.00
1118.65	876.00
1118.89	903.00
1119.13	875.00
1119.37	838.00
1119.60	852.00
1119.84	886.00
>>>>>End Processed Spectral Data<<<<<
