SpectraSuite Data File
++++++++++++++++++++++++++++++++++++
Date: Fri Dec 06 14:48:13 CET 2024
User: student
Dark Spectrum Present: No
Reference Spectrum Present: No
Number of Sampled Component Spectra: 1
Spectrometers: HR4C155
Integration Time (usec): 100000 (HR4C155)
Spectra Averaged: 1 (HR4C155)
Boxcar Smoothing: 0 (HR4C155)
Correct for Electrical Dark: No (HR4C155)
Strobe/Lamp Enabled: No (HR4C155)
Correct for Detector Non-linearity: No (HR4C155)
Correct for Stray Light: No (HR4C155)
Number of Pixels in Processed Spectrum: 3648
>>>>>Begin Processed Spectral Data<<<<<
195.39	652.00
195.66	652.00
195.93	652.00
196.20	652.00
196.46	706.00
196.73	816.00
197.00	831.00
197.27	833.00
197.54	842.00
197.81	861.00
198.08	841.00
198.35	868.00
198.61	881.00
198.88	851.00
199.15	817.00
199.42	844.00
199.69	865.00
199.96	847.00
200.23	865.00
200.49	846.00
200.76	877.00
201.03	869.00
201.30	851.00
201.57	894.00
201.84	902.00
202.11	866.00
202.38	886.00
202.64	910.00
202.91	912.00
203.18	843.00
203.45	896.00
203.72	966.00
203.99	902.00
204.25	909.00
204.52	885.00
204.79	906.00
205.06	916.00
205.33	846.00
205.60	888.00
205.87	907.00
206.13	916.00
206.40	902.00
206.67	880.00
206.94	914.00
207.21	916.00
207.48	886.00
207.75	876.00
208.01	929.00
208.28	922.00
208.55	879.00
208.82	897.00
209.09	892.00
209.36	902.00
209.62	891.00
209.89	895.00
210.16	928.00
210.43	945.00
210.70	895.00
210.97	894.00
211.23	909.00
211.50	909.00
211.77	880.00
212.04	894.00
212.31	904.00
212.58	926.00
212.84	889.00
213.11	892.00
213.38	889.00
213.65	899.00
213.92	876.00
214.18	889.00
214.45	932.00
214.72	918.00
214.99	860.00
215.26	902.00
215.53	884.00
215.79	913.00
216.06	907.00
216.33	904.00
216.60	878.00
216.87	911.00
217.13	844.00
217.40	869.00
217.67	894.00
217.94	921.00
218.21	872.00
218.48	903.00
218.74	942.00
219.01	909.00
219.28	845.00
219.55	867.00
219.82	910.00
220.08	907.00
220.35	866.00
220.62	874.00
220.89	919.00
221.16	948.00
221.42	894.00
221.69	900.00
221.96	907.00
222.23	940.00
222.50	930.00
222.76	921.00
223.03	883.00
223.30	887.00
223.57	873.00
223.84	868.00
224.10	860.00
224.37	915.00
224.64	858.00
224.91	873.00
225.18	920.00
225.44	931.00
225.71	875.00
225.98	900.00
226.25	921.00
226.51	928.00
226.78	868.00
227.05	861.00
227.32	905.00
227.59	900.00
227.85	892.00
228.12	885.00
228.39	917.00
228.66	931.00
228.92	935.00
229.19	905.00
229.46	922.00
229.73	907.00
230.00	866.00
230.26	901.00
230.53	906.00
230.80	905.00
231.07	851.00
231.33	859.00
231.60	890.00
231.87	914.00
232.14	870.00
232.41	913.00
232.67	908.00
232.94	915.00
233.21	871.00
233.48	898.00
233.74	898.00
234.01	904.00
234.28	863.00
234.55	888.00
234.81	880.00
235.08	923.00
235.35	877.00
235.62	853.00
235.88	889.00
236.15	906.00
236.42	894.00
236.69	890.00
236.95	907.00
237.22	882.00
237.49	885.00
237.76	891.00
238.02	935.00
238.29	944.00
238.56	877.00
238.83	887.00
239.09	882.00
239.36	927.00
239.63	878.00
239.90	897.00
240.16	938.00
240.43	939.00
240.70	872.00
240.97	875.00
241.23	898.00
241.50	919.00
241.77	888.00
242.04	892.00
242.30	851.00
242.57	881.00
242.84	863.00
243.11	881.00
243.37	861.00
243.64	925.00
243.91	878.00
244.18	865.00
244.44	863.00
244.71	884.00
244.98	887.00
245.24	899.00
245.51	905.00
245.78	926.00
246.05	860.00
246.31	846.00
246.58	903.00
246.85	883.00
247.12	880.00
247.38	904.00
247.65	907.00
247.92	919.00
248.18	892.00
248.45	886.00
248.72	892.00
248.99	910.00
249.25	855.00
249.52	870.00
249.79	903.00
250.05	894.00
250.32	880.00
250.59	900.00
250.86	891.00
251.12	886.00
251.39	873.00
251.66	894.00
251.92	929.00
252.19	921.00
252.46	869.00
252.73	914.00
252.99	920.00
253.26	918.00
253.53	871.00
253.79	900.00
254.06	895.00
254.33	887.00
254.60	861.00
254.86	876.00
255.13	928.00
255.40	931.00
255.66	892.00
255.93	902.00
256.20	919.00
256.46	921.00
256.73	879.00
257.00	890.00
257.26	898.00
257.53	913.00
257.80	881.00
258.07	882.00
258.33	935.00
258.60	930.00
258.87	865.00
259.13	891.00
259.40	889.00
259.67	929.00
259.93	868.00
260.20	889.00
260.47	911.00
260.73	906.00
261.00	888.00
261.27	898.00
261.53	921.00
261.80	898.00
262.07	853.00
262.34	877.00
262.60	851.00
262.87	884.00
263.14	856.00
263.40	889.00
263.67	884.00
263.94	875.00
264.20	874.00
264.47	859.00
264.74	882.00
265.00	885.00
265.27	852.00
265.54	860.00
265.80	907.00
266.07	928.00
266.34	860.00
266.60	883.00
266.87	902.00
267.14	903.00
267.40	860.00
267.67	854.00
267.94	887.00
268.20	902.00
268.47	858.00
268.74	882.00
269.00	908.00
269.27	882.00
269.54	833.00
269.80	844.00
270.07	903.00
270.33	881.00
270.60	896.00
270.87	895.00
271.13	885.00
271.40	910.00
271.67	839.00
271.93	828.00
272.20	891.00
272.47	873.00
272.73	846.00
273.00	863.00
273.27	873.00
273.53	931.00
273.80	876.00
274.07	852.00
274.33	865.00
274.60	899.00
274.86	879.00
275.13	883.00
275.40	882.00
275.66	926.00
275.93	891.00
276.20	880.00
276.46	884.00
276.73	883.00
277.00	868.00
277.26	884.00
277.53	899.00
277.79	878.00
278.06	881.00
278.33	917.00
278.59	924.00
278.86	875.00
279.13	862.00
279.39	869.00
279.66	920.00
279.93	923.00
280.19	862.00
280.46	868.00
280.72	868.00
280.99	892.00
281.26	868.00
281.52	868.00
281.79	897.00
282.05	901.00
282.32	884.00
282.59	873.00
282.85	918.00
283.12	911.00
283.39	875.00
283.65	879.00
283.92	890.00
284.18	896.00
284.45	874.00
284.72	877.00
284.98	884.00
285.25	878.00
285.51	888.00
285.78	892.00
286.05	878.00
286.31	896.00
286.58	865.00
286.84	876.00
287.11	872.00
287.38	893.00
287.64	896.00
287.91	866.00
288.17	918.00
288.44	896.00
288.71	846.00
288.97	880.00
289.24	920.00
289.50	886.00
289.77	891.00
290.04	855.00
290.30	872.00
290.57	914.00
290.83	849.00
291.10	857.00
291.37	890.00
291.63	890.00
291.90	886.00
292.16	881.00
292.43	895.00
292.70	872.00
292.96	826.00
293.23	850.00
293.49	864.00
293.76	893.00
294.02	858.00
294.29	880.00
294.56	898.00
294.82	897.00
295.09	869.00
295.35	865.00
295.62	913.00
295.89	907.00
296.15	865.00
296.42	879.00
296.68	884.00
296.95	888.00
297.21	896.00
297.48	866.00
297.75	890.00
298.01	910.00
298.28	874.00
298.54	892.00
298.81	897.00
299.07	896.00
299.34	854.00
299.61	864.00
299.87	916.00
300.14	881.00
300.40	872.00
300.67	883.00
300.93	905.00
301.20	927.00
301.46	876.00
301.73	880.00
302.00	897.00
302.26	870.00
302.53	870.00
302.79	878.00
303.06	900.00
303.32	954.00
303.59	858.00
303.85	867.00
304.12	892.00
304.39	890.00
304.65	881.00
304.92	863.00
305.18	882.00
305.45	906.00
305.71	860.00
305.98	891.00
306.24	882.00
306.51	888.00
306.77	871.00
307.04	874.00
307.31	913.00
307.57	916.00
307.84	834.00
308.10	860.00
308.37	852.00
308.63	871.00
308.90	869.00
309.16	869.00
309.43	889.00
309.69	890.00
309.96	881.00
310.22	876.00
310.49	887.00
310.76	906.00
311.02	867.00
311.29	863.00
311.55	878.00
311.82	910.00
312.08	897.00
312.35	888.00
312.61	916.00
312.88	917.00
313.14	871.00
313.41	860.00
313.67	864.00
313.94	884.00
314.20	859.00
314.47	903.00
314.73	891.00
315.00	882.00
315.26	868.00
315.53	886.00
315.79	904.00
316.06	898.00
316.32	876.00
316.59	893.00
316.85	899.00
317.12	906.00
317.39	850.00
317.65	868.00
317.92	887.00
318.18	885.00
318.45	868.00
318.71	919.00
318.98	918.00
319.24	894.00
319.51	890.00
319.77	872.00
320.04	886.00
320.30	889.00
320.57	870.00
320.83	866.00
321.10	869.00
321.36	891.00
321.63	850.00
321.89	856.00
322.16	937.00
322.42	903.00
322.69	866.00
322.95	850.00
323.22	881.00
323.48	900.00
323.75	866.00
324.01	872.00
324.28	895.00
324.54	915.00
324.80	867.00
325.07	887.00
325.33	881.00
325.60	868.00
325.86	838.00
326.13	863.00
326.39	872.00
326.66	863.00
326.92	837.00
327.19	876.00
327.45	912.00
327.72	911.00
327.98	859.00
328.25	861.00
328.51	890.00
328.78	883.00
329.04	860.00
329.31	885.00
329.57	890.00
329.84	866.00
330.10	854.00
330.37	872.00
330.63	905.00
330.89	916.00
331.16	882.00
331.42	876.00
331.69	905.00
331.95	901.00
332.22	894.00
332.48	910.00
332.75	890.00
333.01	866.00
333.28	842.00
333.54	873.00
333.81	890.00
334.07	897.00
334.34	883.00
334.60	886.00
334.86	913.00
335.13	922.00
335.39	888.00
335.66	883.00
335.92	913.00
336.19	893.00
336.45	844.00
336.72	862.00
336.98	868.00
337.24	894.00
337.51	850.00
337.77	869.00
338.04	891.00
338.30	874.00
338.57	839.00
338.83	863.00
339.10	902.00
339.36	904.00
339.63	867.00
339.89	854.00
340.15	892.00
340.42	903.00
340.68	880.00
340.95	878.00
341.21	891.00
341.48	913.00
341.74	870.00
342.00	855.00
342.27	889.00
342.53	889.00
342.80	850.00
343.06	868.00
343.33	888.00
343.59	911.00
343.85	879.00
344.12	890.00
344.38	941.00
344.65	923.00
344.91	859.00
345.18	867.00
345.44	878.00
345.70	875.00
345.97	847.00
346.23	854.00
346.50	901.00
346.76	889.00
347.03	876.00
347.29	877.00
347.55	869.00
347.82	867.00
348.08	861.00
348.35	869.00
348.61	927.00
348.87	909.00
349.14	861.00
349.40	859.00
349.67	887.00
349.93	868.00
350.20	863.00
350.46	881.00
350.72	899.00
350.99	879.00
351.25	867.00
351.52	895.00
351.78	881.00
352.04	892.00
352.31	877.00
352.57	872.00
352.84	867.00
353.10	893.00
353.36	879.00
353.63	866.00
353.89	872.00
354.16	883.00
354.42	864.00
354.68	894.00
354.95	927.00
355.21	925.00
355.48	857.00
355.74	890.00
356.00	932.00
356.27	926.00
356.53	857.00
356.80	867.00
357.06	892.00
357.32	911.00
357.59	884.00
357.85	901.00
358.11	927.00
358.38	908.00
358.64	870.00
358.91	884.00
359.17	880.00
359.43	914.00
359.70	881.00
359.96	882.00
360.22	893.00
360.49	892.00
360.75	871.00
361.02	865.00
361.28	882.00
361.54	903.00
361.81	862.00
362.07	866.00
362.33	870.00
362.60	874.00
362.86	862.00
363.13	886.00
363.39	917.00
363.65	913.00
363.92	837.00
364.18	840.00
364.44	872.00
364.71	881.00
364.97	863.00
365.24	855.00
365.50	881.00
365.76	894.00
366.03	873.00
366.29	886.00
366.55	905.00
366.82	894.00
367.08	842.00
367.34	870.00
367.61	915.00
367.87	921.00
368.13	866.00
368.40	885.00
368.66	944.00
368.93	927.00
369.19	839.00
369.45	854.00
369.72	868.00
369.98	859.00
370.24	855.00
370.51	877.00
370.77	884.00
371.03	886.00
371.30	891.00
371.56	891.00
371.82	904.00
372.09	894.00
372.35	878.00
372.61	883.00
372.88	884.00
373.14	904.00
373.40	867.00
373.67	879.00
373.93	888.00
374.19	893.00
374.46	852.00
374.72	850.00
374.98	900.00
375.25	905.00
375.51	890.00
375.77	900.00
376.04	916.00
376.30	900.00
376.56	855.00
376.83	867.00
377.09	885.00
377.35	900.00
377.62	885.00
377.88	869.00
378.14	875.00
378.41	881.00
378.67	862.00
378.93	864.00
379.20	908.00
379.46	882.00
379.72	847.00
379.99	853.00
380.25	881.00
380.51	862.00
380.77	859.00
381.04	875.00
381.30	877.00
381.56	911.00
381.83	891.00
382.09	874.00
382.35	868.00
382.62	892.00
382.88	888.00
383.14	868.00
383.41	870.00
383.67	876.00
383.93	877.00
384.20	892.00
384.46	903.00
384.72	913.00
384.98	840.00
385.25	870.00
385.51	903.00
385.77	889.00
386.04	858.00
386.30	863.00
386.56	905.00
386.82	940.00
387.09	872.00
387.35	882.00
387.61	951.00
387.88	906.00
388.14	867.00
388.40	885.00
388.67	871.00
388.93	878.00
389.19	876.00
389.45	884.00
389.72	888.00
389.98	911.00
390.24	871.00
390.51	859.00
390.77	910.00
391.03	915.00
391.29	858.00
391.56	883.00
391.82	893.00
392.08	920.00
392.35	869.00
392.61	862.00
392.87	895.00
393.13	917.00
393.40	877.00
393.66	857.00
393.92	899.00
394.18	893.00
394.45	843.00
394.71	869.00
394.97	870.00
395.24	873.00
395.50	858.00
395.76	890.00
396.02	904.00
396.29	890.00
396.55	844.00
396.81	833.00
397.07	868.00
397.34	863.00
397.60	846.00
397.86	857.00
398.12	890.00
398.39	917.00
398.65	858.00
398.91	867.00
399.17	881.00
399.44	835.00
399.70	817.00
399.96	852.00
400.22	862.00
400.49	913.00
400.75	881.00
401.01	867.00
401.27	877.00
401.54	910.00
401.80	876.00
402.06	862.00
402.32	893.00
402.59	874.00
402.85	856.00
403.11	847.00
403.37	860.00
403.64	925.00
403.90	871.00
404.16	860.00
404.42	869.00
404.69	868.00
404.95	855.00
405.21	828.00
405.47	872.00
405.74	898.00
406.00	845.00
406.26	844.00
406.52	879.00
406.79	903.00
407.05	861.00
407.31	881.00
407.57	873.00
407.83	887.00
408.10	826.00
408.36	844.00
408.62	871.00
408.88	874.00
409.15	867.00
409.41	828.00
409.67	860.00
409.93	905.00
410.20	880.00
410.46	867.00
410.72	867.00
410.98	871.00
411.24	859.00
411.51	875.00
411.77	865.00
412.03	869.00
412.29	866.00
412.55	894.00
412.82	881.00
413.08	886.00
413.34	871.00
413.60	881.00
413.87	879.00
414.13	908.00
414.39	854.00
414.65	870.00
414.91	906.00
415.18	878.00
415.44	842.00
415.70	861.00
415.96	884.00
416.22	866.00
416.49	849.00
416.75	866.00
417.01	877.00
417.27	886.00
417.53	866.00
417.80	877.00
418.06	913.00
418.32	918.00
418.58	842.00
418.84	855.00
419.11	882.00
419.37	888.00
419.63	851.00
419.89	830.00
420.15	872.00
420.42	891.00
420.68	847.00
420.94	863.00
421.20	863.00
421.46	877.00
421.72	862.00
421.99	874.00
422.25	875.00
422.51	896.00
422.77	873.00
423.03	877.00
423.30	878.00
423.56	892.00
423.82	893.00
424.08	889.00
424.34	892.00
424.60	902.00
424.87	866.00
425.13	856.00
425.39	876.00
425.65	871.00
425.91	847.00
426.18	879.00
426.44	884.00
426.70	864.00
426.96	825.00
427.22	842.00
427.48	875.00
427.75	881.00
428.01	822.00
428.27	854.00
428.53	901.00
428.79	865.00
429.05	841.00
429.32	854.00
429.58	914.00
429.84	888.00
430.10	879.00
430.36	881.00
430.62	907.00
430.88	906.00
431.15	880.00
431.41	882.00
431.67	889.00
431.93	871.00
432.19	850.00
432.45	871.00
432.72	885.00
432.98	888.00
433.24	887.00
433.50	964.00
433.76	880.00
434.02	864.00
434.28	840.00
434.55	857.00
434.81	896.00
435.07	893.00
435.33	831.00
435.59	851.00
435.85	861.00
436.11	880.00
436.38	854.00
436.64	835.00
436.90	860.00
437.16	862.00
437.42	854.00
437.68	866.00
437.94	889.00
438.21	901.00
438.47	891.00
438.73	897.00
438.99	886.00
439.25	881.00
439.51	842.00
439.77	864.00
440.03	867.00
440.30	885.00
440.56	865.00
440.82	893.00
441.08	897.00
441.34	878.00
441.60	836.00
441.86	873.00
442.12	893.00
442.39	880.00
442.65	866.00
442.91	864.00
443.17	863.00
443.43	882.00
443.69	861.00
443.95	844.00
444.21	870.00
444.47	906.00
444.74	839.00
445.00	879.00
445.26	876.00
445.52	883.00
445.78	856.00
446.04	858.00
446.30	896.00
446.56	888.00
446.82	861.00
447.09	861.00
447.35	881.00
447.61	880.00
447.87	867.00
448.13	874.00
448.39	934.00
448.65	899.00
448.91	856.00
449.17	854.00
449.43	850.00
449.70	861.00
449.96	841.00
450.22	851.00
450.48	881.00
450.74	922.00
451.00	856.00
451.26	872.00
451.52	888.00
451.78	876.00
452.04	833.00
452.31	877.00
452.57	892.00
452.83	860.00
453.09	867.00
453.35	857.00
453.61	881.00
453.87	900.00
454.13	899.00
454.39	898.00
454.65	940.00
454.91	929.00
455.17	854.00
455.44	851.00
455.70	875.00
455.96	880.00
456.22	848.00
456.48	864.00
456.74	881.00
457.00	867.00
457.26	812.00
457.52	856.00
457.78	875.00
458.04	882.00
458.30	839.00
458.56	855.00
458.82	868.00
459.09	855.00
459.35	802.00
459.61	843.00
459.87	884.00
460.13	901.00
460.39	858.00
460.65	833.00
460.91	890.00
461.17	877.00
461.43	824.00
461.69	842.00
461.95	870.00
462.21	854.00
462.47	861.00
462.73	901.00
462.99	897.00
463.26	896.00
463.52	845.00
463.78	822.00
464.04	857.00
464.30	880.00
464.56	864.00
464.82	872.00
465.08	912.00
465.34	904.00
465.60	868.00
465.86	858.00
466.12	865.00
466.38	860.00
466.64	844.00
466.90	858.00
467.16	873.00
467.42	888.00
467.68	848.00
467.94	855.00
468.20	903.00
468.46	889.00
468.72	852.00
468.98	890.00
469.25	899.00
469.51	861.00
469.77	865.00
470.03	865.00
470.29	871.00
470.55	882.00
470.81	851.00
471.07	860.00
471.33	885.00
471.59	896.00
471.85	852.00
472.11	881.00
472.37	897.00
472.63	881.00
472.89	868.00
473.15	857.00
473.41	877.00
473.67	872.00
473.93	829.00
474.19	842.00
474.45	851.00
474.71	866.00
474.97	852.00
475.23	850.00
475.49	873.00
475.75	861.00
476.01	860.00
476.27	876.00
476.53	894.00
476.79	889.00
477.05	860.00
477.31	857.00
477.57	875.00
477.83	873.00
478.09	831.00
478.35	874.00
478.61	911.00
478.87	876.00
479.13	856.00
479.39	894.00
479.65	911.00
479.91	887.00
480.17	875.00
480.43	891.00
480.69	874.00
480.95	890.00
481.21	846.00
481.47	871.00
481.73	881.00
481.99	870.00
482.25	826.00
482.51	835.00
482.77	887.00
483.03	890.00
483.29	868.00
483.55	877.00
483.81	918.00
484.07	905.00
484.33	848.00
484.59	864.00
484.85	892.00
485.11	890.00
485.37	864.00
485.63	858.00
485.89	849.00
486.15	856.00
486.41	835.00
486.67	852.00
486.93	885.00
487.19	876.00
487.45	854.00
487.71	857.00
487.97	874.00
488.23	885.00
488.49	854.00
488.75	866.00
489.01	891.00
489.27	915.00
489.53	858.00
489.79	845.00
490.05	878.00
490.31	888.00
490.57	879.00
490.83	914.00
491.08	871.00
491.34	867.00
491.60	861.00
491.86	871.00
492.12	911.00
492.38	910.00
492.64	848.00
492.90	838.00
493.16	891.00
493.42	864.00
493.68	844.00
493.94	864.00
494.20	863.00
494.46	885.00
494.72	845.00
494.98	859.00
495.24	873.00
495.50	872.00
495.76	874.00
496.02	888.00
496.28	904.00
496.54	895.00
496.80	872.00
497.05	842.00
497.31	878.00
497.57	889.00
497.83	854.00
498.09	879.00
498.35	898.00
498.61	897.00
498.87	865.00
499.13	872.00
499.39	891.00
499.65	875.00
499.91	873.00
500.17	853.00
500.43	933.00
500.69	968.00
500.95	857.00
501.20	875.00
501.46	879.00
501.72	898.00
501.98	886.00
502.24	879.00
502.50	890.00
502.76	865.00
503.02	862.00
503.28	875.00
503.54	914.00
503.80	897.00
504.06	875.00
504.32	882.00
504.58	897.00
504.83	897.00
505.09	853.00
505.35	873.00
505.61	859.00
505.87	885.00
506.13	866.00
506.39	850.00
506.65	884.00
506.91	924.00
507.17	877.00
507.43	849.00
507.68	866.00
507.94	902.00
508.20	850.00
508.46	857.00
508.72	903.00
508.98	917.00
509.24	854.00
509.50	881.00
509.76	872.00
510.02	873.00
510.28	837.00
510.53	855.00
510.79	884.00
511.05	861.00
511.31	842.00
511.57	850.00
511.83	878.00
512.09	893.00
512.35	852.00
512.61	868.00
512.87	878.00
513.12	908.00
513.38	856.00
513.64	861.00
513.90	882.00
514.16	915.00
514.42	870.00
514.68	874.00
514.94	907.00
515.20	892.00
515.45	848.00
515.71	864.00
515.97	884.00
516.23	892.00
516.49	866.00
516.75	874.00
517.01	877.00
517.27	869.00
517.53	851.00
517.78	860.00
518.04	877.00
518.30	859.00
518.56	830.00
518.82	881.00
519.08	921.00
519.34	863.00
519.60	849.00
519.85	866.00
520.11	872.00
520.37	885.00
520.63	863.00
520.89	866.00
521.15	872.00
521.41	870.00
521.66	860.00
521.92	871.00
522.18	893.00
522.44	911.00
522.70	866.00
522.96	841.00
523.22	894.00
523.48	891.00
523.73	861.00
523.99	850.00
524.25	903.00
524.51	891.00
524.77	858.00
525.03	855.00
525.29	878.00
525.54	880.00
525.80	852.00
526.06	866.00
526.32	875.00
526.58	884.00
526.84	841.00
527.09	847.00
527.35	845.00
527.61	852.00
527.87	850.00
528.13	877.00
528.39	871.00
528.65	874.00
528.90	825.00
529.16	845.00
529.42	841.00
529.68	859.00
529.94	859.00
530.20	859.00
530.45	863.00
530.71	889.00
530.97	858.00
531.23	864.00
531.49	876.00
531.75	859.00
532.00	860.00
532.26	859.00
532.52	893.00
532.78	875.00
533.04	849.00
533.30	855.00
533.55	873.00
533.81	865.00
534.07	809.00
534.33	824.00
534.59	891.00
534.85	890.00
535.10	852.00
535.36	850.00
535.62	886.00
535.88	877.00
536.14	846.00
536.39	861.00
536.65	895.00
536.91	891.00
537.17	842.00
537.43	855.00
537.69	901.00
537.94	873.00
538.20	836.00
538.46	857.00
538.72	862.00
538.98	878.00
539.23	841.00
539.49	835.00
539.75	899.00
540.01	902.00
540.27	854.00
540.52	891.00
540.78	901.00
541.04	902.00
541.30	832.00
541.56	832.00
541.81	906.00
542.07	957.00
542.33	868.00
542.59	854.00
542.85	868.00
543.10	883.00
543.36	846.00
543.62	874.00
543.88	864.00
544.14	870.00
544.39	848.00
544.65	850.00
544.91	894.00
545.17	892.00
545.43	857.00
545.68	872.00
545.94	888.00
546.20	881.00
546.46	836.00
546.71	852.00
546.97	864.00
547.23	897.00
547.49	864.00
547.75	854.00
548.00	891.00
548.26	898.00
548.52	838.00
548.78	831.00
549.03	866.00
549.29	871.00
549.55	835.00
549.81	858.00
550.07	882.00
550.32	883.00
550.58	856.00
550.84	873.00
551.10	883.00
551.35	877.00
551.61	869.00
551.87	877.00
552.13	865.00
552.39	858.00
552.64	827.00
552.90	852.00
553.16	876.00
553.42	875.00
553.67	851.00
553.93	850.00
554.19	878.00
554.45	916.00
554.70	869.00
554.96	844.00
555.22	876.00
555.48	898.00
555.73	859.00
555.99	870.00
556.25	889.00
556.51	883.00
556.76	855.00
557.02	865.00
557.28	890.00
557.54	868.00
557.79	843.00
558.05	868.00
558.31	843.00
558.57	877.00
558.82	853.00
559.08	836.00
559.34	829.00
559.60	864.00
559.85	870.00
560.11	872.00
560.37	886.00
560.63	866.00
560.88	841.00
561.14	846.00
561.40	902.00
561.66	866.00
561.91	840.00
562.17	849.00
562.43	882.00
562.68	904.00
562.94	879.00
563.20	881.00
563.46	880.00
563.71	905.00
563.97	858.00
564.23	875.00
564.49	901.00
564.74	884.00
565.00	845.00
565.26	859.00
565.51	866.00
565.77	841.00
566.03	833.00
566.29	872.00
566.54	857.00
566.80	868.00
567.06	854.00
567.31	879.00
567.57	902.00
567.83	866.00
568.09	857.00
568.34	841.00
568.60	859.00
568.86	886.00
569.11	897.00
569.37	868.00
569.63	894.00
569.89	873.00
570.14	817.00
570.40	833.00
570.66	859.00
570.91	855.00
571.17	844.00
571.43	863.00
571.69	901.00
571.94	900.00
572.20	851.00
572.46	855.00
572.71	886.00
572.97	858.00
573.23	834.00
573.48	840.00
573.74	878.00
574.00	888.00
574.26	838.00
574.51	859.00
574.77	896.00
575.03	878.00
575.28	859.00
575.54	844.00
575.80	862.00
576.05	883.00
576.31	833.00
576.57	823.00
576.82	871.00
577.08	893.00
577.34	867.00
577.59	856.00
577.85	897.00
578.11	888.00
578.37	852.00
578.62	850.00
578.88	880.00
579.14	881.00
579.39	841.00
579.65	871.00
579.91	876.00
580.16	889.00
580.42	877.00
580.68	866.00
580.93	884.00
581.19	868.00
581.45	849.00
581.70	881.00
581.96	898.00
582.22	885.00
582.47	856.00
582.73	861.00
582.99	888.00
583.24	900.00
583.50	858.00
583.76	855.00
584.01	882.00
584.27	913.00
584.53	877.00
584.78	868.00
585.04	845.00
585.30	875.00
585.55	865.00
585.81	863.00
586.07	904.00
586.32	901.00
586.58	854.00
586.83	847.00
587.09	873.00
587.35	870.00
587.60	849.00
587.86	853.00
588.12	871.00
588.37	904.00
588.63	865.00
588.89	875.00
589.14	893.00
589.40	893.00
589.66	854.00
589.91	856.00
590.17	895.00
590.43	860.00
590.68	846.00
590.94	869.00
591.19	882.00
591.45	879.00
591.71	854.00
591.96	874.00
592.22	887.00
592.48	892.00
592.73	845.00
592.99	858.00
593.25	886.00
593.50	877.00
593.76	845.00
594.01	872.00
594.27	896.00
594.53	890.00
594.78	860.00
595.04	871.00
595.30	892.00
595.55	883.00
595.81	853.00
596.06	896.00
596.32	905.00
596.58	884.00
596.83	853.00
597.09	883.00
597.35	895.00
597.60	872.00
597.86	847.00
598.11	878.00
598.37	909.00
598.63	901.00
598.88	875.00
599.14	877.00
599.39	921.00
599.65	892.00
599.91	830.00
600.16	850.00
600.42	887.00
600.67	908.00
600.93	863.00
601.19	898.00
601.44	953.00
601.70	926.00
601.95	868.00
602.21	892.00
602.47	881.00
602.72	899.00
602.98	870.00
603.23	899.00
603.49	922.00
603.75	922.00
604.00	879.00
604.26	894.00
604.51	890.00
604.77	920.00
605.03	876.00
605.28	873.00
605.54	934.00
605.79	949.00
606.05	879.00
606.31	868.00
606.56	900.00
606.82	921.00
607.07	900.00
607.33	902.00
607.59	941.00
607.84	920.00
608.10	877.00
608.35	897.00
608.61	920.00
608.86	931.00
609.12	917.00
609.38	954.00
609.63	946.00
609.89	933.00
610.14	901.00
610.40	911.00
610.65	943.00
610.91	948.00
611.17	907.00
611.42	929.00
611.68	983.00
611.93	994.00
612.19	969.00
612.44	972.00
612.70	977.00
612.96	954.00
613.21	953.00
613.47	965.00
613.72	975.00
613.98	993.00
614.23	965.00
614.49	982.00
614.75	1020.00
615.00	1010.00
615.26	997.00
615.51	997.00
615.77	1014.00
616.02	1029.00
616.28	1012.00
616.53	1023.00
616.79	1033.00
617.05	1025.00
617.30	990.00
617.56	1024.00
617.81	1069.00
618.07	1058.00
618.32	1050.00
618.58	1066.00
618.83	1080.00
619.09	1085.00
619.34	1042.00
619.60	1074.00
619.86	1139.00
620.11	1149.00
620.37	1128.00
620.62	1148.00
620.88	1187.00
621.13	1210.00
621.39	1179.00
621.64	1193.00
621.90	1259.00
622.15	1234.00
622.41	1218.00
622.66	1229.00
622.92	1289.00
623.18	1370.00
623.43	1330.00
623.69	1335.00
623.94	1364.00
624.20	1395.00
624.45	1413.00
624.71	1448.00
624.96	1470.00
625.22	1473.00
625.47	1428.00
625.73	1460.00
625.98	1483.00
626.24	1532.00
626.49	1557.00
626.75	1662.00
627.00	1752.00
627.26	1768.00
627.51	1681.00
627.77	1713.00
628.02	1768.00
628.28	1796.00
628.53	1778.00
628.79	1889.00
629.05	1934.00
629.30	1981.00
629.56	2078.00
629.81	2153.00
630.07	2159.00
630.32	2096.00
630.58	2176.00
630.83	2378.00
631.09	2496.00
631.34	2596.00
631.60	2789.00
631.85	3014.00
632.11	3252.00
632.36	3190.00
632.62	3106.00
632.87	3119.00
633.13	3135.00
633.38	3031.00
633.64	3039.00
633.89	3116.00
634.15	3280.00
634.40	3535.00
634.66	3743.00
634.91	3720.00
635.17	3629.00
635.42	3550.00
635.68	3511.00
635.93	3688.00
636.18	3899.00
636.44	3871.00
636.69	3539.00
636.95	3487.00
637.20	3524.00
637.46	3686.00
637.71	3706.00
637.97	3584.00
638.22	3373.00
638.48	3378.00
638.73	3267.00
638.99	3228.00
639.24	3237.00
639.50	3197.00
639.75	3131.00
640.01	3399.00
640.26	3426.00
640.52	3159.00
640.77	2893.00
641.03	2801.00
641.28	2797.00
641.54	2867.00
641.79	2675.00
642.04	2448.00
642.30	2285.00
642.55	2193.00
642.81	2273.00
643.06	2439.00
643.32	2425.00
643.57	2253.00
643.83	2069.00
644.08	1895.00
644.34	1831.00
644.59	1846.00
644.85	1849.00
645.10	1806.00
645.35	1674.00
645.61	1600.00
645.86	1535.00
646.12	1521.00
646.37	1549.00
646.63	1534.00
646.88	1442.00
647.14	1421.00
647.39	1409.00
647.65	1431.00
647.90	1337.00
648.15	1292.00
648.41	1308.00
648.66	1274.00
648.92	1211.00
649.17	1219.00
649.43	1222.00
649.68	1179.00
649.94	1149.00
650.19	1156.00
650.44	1141.00
650.70	1110.00
650.95	1055.00
651.21	1087.00
651.46	1112.00
651.72	1081.00
651.97	1060.00
652.23	1025.00
652.48	1031.00
652.73	1046.00
652.99	988.00
653.24	979.00
653.50	985.00
653.75	990.00
654.01	977.00
654.26	1000.00
654.51	1004.00
654.77	1005.00
655.02	1006.00
655.28	956.00
655.53	947.00
655.79	967.00
656.04	923.00
656.29	917.00
656.55	926.00
656.80	954.00
657.06	909.00
657.31	908.00
657.56	933.00
657.82	921.00
658.07	889.00
658.33	916.00
658.58	917.00
658.84	933.00
659.09	907.00
659.34	919.00
659.60	916.00
659.85	907.00
660.11	888.00
660.36	891.00
660.61	887.00
660.87	872.00
661.12	843.00
661.38	870.00
661.63	905.00
661.88	908.00
662.14	902.00
662.39	889.00
662.65	938.00
662.90	929.00
663.15	868.00
663.41	882.00
663.66	901.00
663.92	919.00
664.17	860.00
664.42	863.00
664.68	894.00
664.93	871.00
665.19	851.00
665.44	872.00
665.69	864.00
665.95	877.00
666.20	848.00
666.45	886.00
666.71	897.00
666.96	908.00
667.22	849.00
667.47	861.00
667.72	871.00
667.98	900.00
668.23	865.00
668.49	894.00
668.74	910.00
668.99	889.00
669.25	849.00
669.50	855.00
669.75	881.00
670.01	893.00
670.26	852.00
670.52	867.00
670.77	900.00
671.02	882.00
671.28	850.00
671.53	873.00
671.78	885.00
672.04	908.00
672.29	869.00
672.54	855.00
672.80	881.00
673.05	882.00
673.31	848.00
673.56	894.00
673.81	904.00
674.07	891.00
674.32	862.00
674.57	856.00
674.83	863.00
675.08	867.00
675.33	848.00
675.59	861.00
675.84	881.00
676.09	861.00
676.35	851.00
676.60	863.00
676.86	870.00
677.11	900.00
677.36	866.00
677.62	875.00
677.87	900.00
678.12	926.00
678.38	869.00
678.63	864.00
678.88	894.00
679.14	929.00
679.39	841.00
679.64	861.00
679.90	870.00
680.15	899.00
680.40	889.00
680.66	864.00
680.91	870.00
681.16	865.00
681.42	841.00
681.67	846.00
681.92	868.00
682.18	903.00
682.43	839.00
682.68	840.00
682.94	857.00
683.19	864.00
683.44	838.00
683.70	874.00
683.95	892.00
684.20	875.00
684.46	870.00
684.71	881.00
684.96	876.00
685.22	898.00
685.47	872.00
685.72	883.00
685.98	885.00
686.23	839.00
686.48	833.00
686.74	872.00
686.99	906.00
687.24	877.00
687.50	842.00
687.75	863.00
688.00	866.00
688.25	891.00
688.51	869.00
688.76	880.00
689.01	844.00
689.27	853.00
689.52	822.00
689.77	854.00
690.03	846.00
690.28	838.00
690.53	845.00
690.79	864.00
691.04	883.00
691.29	874.00
691.54	819.00
691.80	861.00
692.05	873.00
692.30	859.00
692.56	833.00
692.81	866.00
693.06	860.00
693.32	859.00
693.57	852.00
693.82	883.00
694.07	892.00
694.33	892.00
694.58	835.00
694.83	887.00
695.09	853.00
695.34	882.00
695.59	852.00
695.84	861.00
696.10	880.00
696.35	881.00
696.60	829.00
696.86	847.00
697.11	870.00
697.36	877.00
697.61	841.00
697.87	867.00
698.12	845.00
698.37	877.00
698.63	857.00
698.88	838.00
699.13	858.00
699.38	855.00
699.64	841.00
699.89	846.00
700.14	854.00
700.39	861.00
700.65	849.00
700.90	883.00
701.15	869.00
701.40	877.00
701.66	846.00
701.91	859.00
702.16	854.00
702.42	860.00
702.67	841.00
702.92	861.00
703.17	861.00
703.43	865.00
703.68	853.00
703.93	882.00
704.18	904.00
704.44	869.00
704.69	853.00
704.94	869.00
705.19	855.00
705.45	890.00
705.70	870.00
705.95	862.00
706.20	874.00
706.46	890.00
706.71	857.00
706.96	854.00
707.21	884.00
707.47	872.00
707.72	849.00
707.97	858.00
708.22	904.00
708.48	903.00
708.73	846.00
708.98	845.00
709.23	860.00
709.49	861.00
709.74	842.00
709.99	859.00
710.24	876.00
710.50	873.00
710.75	868.00
711.00	881.00
711.25	875.00
711.50	863.00
711.76	833.00
712.01	841.00
712.26	843.00
712.51	858.00
712.77	850.00
713.02	866.00
713.27	861.00
713.52	861.00
713.78	841.00
714.03	860.00
714.28	843.00
714.53	860.00
714.78	850.00
715.04	883.00
715.29	889.00
715.54	881.00
715.79	851.00
716.05	880.00
716.30	873.00
716.55	878.00
716.80	845.00
717.05	872.00
717.31	882.00
717.56	888.00
717.81	864.00
718.06	851.00
718.31	846.00
718.57	867.00
718.82	853.00
719.07	878.00
719.32	852.00
719.57	863.00
719.83	837.00
720.08	876.00
720.33	865.00
720.58	851.00
720.83	823.00
721.09	873.00
721.34	878.00
721.59	883.00
721.84	842.00
722.09	850.00
722.35	871.00
722.60	866.00
722.85	821.00
723.10	866.00
723.35	855.00
723.61	871.00
723.86	865.00
724.11	866.00
724.36	856.00
724.61	866.00
724.87	861.00
725.12	854.00
725.37	855.00
725.62	847.00
725.87	831.00
726.12	842.00
726.38	845.00
726.63	875.00
726.88	844.00
727.13	855.00
727.38	862.00
727.64	872.00
727.89	846.00
728.14	853.00
728.39	837.00
728.64	870.00
728.89	849.00
729.15	873.00
729.40	872.00
729.65	892.00
729.90	848.00
730.15	861.00
730.40	869.00
730.66	870.00
730.91	827.00
731.16	866.00
731.41	866.00
731.66	876.00
731.91	839.00
732.17	873.00
732.42	880.00
732.67	877.00
732.92	830.00
733.17	851.00
733.42	873.00
733.68	880.00
733.93	845.00
734.18	873.00
734.43	836.00
734.68	834.00
734.93	836.00
735.18	874.00
735.44	874.00
735.69	880.00
735.94	826.00
736.19	848.00
736.44	852.00
736.69	889.00
736.95	842.00
737.20	858.00
737.45	879.00
737.70	868.00
737.95	868.00
738.20	898.00
738.45	874.00
738.70	872.00
738.96	849.00
739.21	877.00
739.46	866.00
739.71	883.00
739.96	865.00
740.21	886.00
740.46	945.00
740.72	918.00
740.97	857.00
741.22	876.00
741.47	853.00
741.72	860.00
741.97	822.00
742.22	851.00
742.47	881.00
742.73	869.00
742.98	839.00
743.23	848.00
743.48	837.00
743.73	867.00
743.98	858.00
744.23	867.00
744.48	864.00
744.74	849.00
744.99	829.00
745.24	870.00
745.49	856.00
745.74	887.00
745.99	841.00
746.24	873.00
746.49	851.00
746.74	854.00
747.00	854.00
747.25	858.00
747.50	824.00
747.75	841.00
748.00	834.00
748.25	848.00
748.50	865.00
748.75	884.00
749.00	884.00
749.26	900.00
749.51	870.00
749.76	885.00
750.01	838.00
750.26	854.00
750.51	898.00
750.76	886.00
751.01	849.00
751.26	849.00
751.51	865.00
751.77	887.00
752.02	856.00
752.27	852.00
752.52	860.00
752.77	878.00
753.02	848.00
753.27	860.00
753.52	862.00
753.77	850.00
754.02	834.00
754.27	852.00
754.52	845.00
754.78	873.00
755.03	850.00
755.28	873.00
755.53	865.00
755.78	853.00
756.03	846.00
756.28	867.00
756.53	876.00
756.78	866.00
757.03	853.00
757.28	880.00
757.53	885.00
757.79	834.00
758.04	823.00
758.29	892.00
758.54	890.00
758.79	884.00
759.04	841.00
759.29	826.00
759.54	856.00
759.79	862.00
760.04	856.00
760.29	857.00
760.54	866.00
760.79	872.00
761.04	836.00
761.29	862.00
761.55	858.00
761.80	867.00
762.05	835.00
762.30	850.00
762.55	836.00
762.80	876.00
763.05	887.00
763.30	902.00
763.55	903.00
763.80	873.00
764.05	833.00
764.30	855.00
764.55	884.00
764.80	867.00
765.05	834.00
765.30	870.00
765.55	867.00
765.80	856.00
766.05	828.00
766.30	869.00
766.56	874.00
766.81	877.00
767.06	859.00
767.31	853.00
767.56	850.00
767.81	876.00
768.06	834.00
768.31	857.00
768.56	848.00
768.81	902.00
769.06	852.00
769.31	875.00
769.56	867.00
769.81	893.00
770.06	836.00
770.31	834.00
770.56	862.00
770.81	838.00
771.06	825.00
771.31	849.00
771.56	869.00
771.81	881.00
772.06	836.00
772.31	875.00
772.56	878.00
772.81	883.00
773.06	845.00
773.31	866.00
773.56	848.00
773.81	824.00
774.06	818.00
774.31	853.00
774.56	859.00
774.81	872.00
775.06	859.00
775.31	888.00
775.56	876.00
775.81	875.00
776.06	834.00
776.31	864.00
776.56	877.00
776.82	875.00
777.07	836.00
777.32	869.00
777.57	858.00
777.82	894.00
778.07	851.00
778.32	834.00
778.57	857.00
778.82	876.00
779.07	851.00
779.32	849.00
779.57	848.00
779.82	871.00
780.07	848.00
780.32	863.00
780.56	872.00
780.81	905.00
781.06	835.00
781.31	842.00
781.56	873.00
781.81	867.00
782.06	836.00
782.31	873.00
782.56	873.00
782.81	885.00
783.06	830.00
783.31	852.00
783.56	861.00
783.81	882.00
784.06	848.00
784.31	854.00
784.56	839.00
784.81	903.00
785.06	868.00
785.31	873.00
785.56	842.00
785.81	840.00
786.06	825.00
786.31	859.00
786.56	843.00
786.81	855.00
787.06	864.00
787.31	870.00
787.56	869.00
787.81	851.00
788.06	830.00
788.31	877.00
788.56	854.00
788.81	875.00
789.06	852.00
789.31	852.00
789.56	849.00
789.81	852.00
790.06	835.00
790.31	887.00
790.56	860.00
790.80	861.00
791.05	828.00
791.30	833.00
791.55	848.00
791.80	866.00
792.05	852.00
792.30	852.00
792.55	842.00
792.80	866.00
793.05	833.00
793.30	845.00
793.55	871.00
793.80	874.00
794.05	835.00
794.30	870.00
794.55	865.00
794.80	872.00
795.05	819.00
795.30	833.00
795.54	835.00
795.79	862.00
796.04	837.00
796.29	865.00
796.54	855.00
796.79	891.00
797.04	855.00
797.29	857.00
797.54	870.00
797.79	872.00
798.04	866.00
798.29	852.00
798.54	853.00
798.79	858.00
799.04	839.00
799.29	861.00
799.53	854.00
799.78	863.00
800.03	829.00
800.28	828.00
800.53	858.00
800.78	913.00
801.03	857.00
801.28	861.00
801.53	852.00
801.78	870.00
802.03	843.00
802.28	872.00
802.52	898.00
802.77	891.00
803.02	863.00
803.27	869.00
803.52	821.00
803.77	878.00
804.02	889.00
804.27	892.00
804.52	871.00
804.77	894.00
805.02	860.00
805.27	884.00
805.51	881.00
805.76	885.00
806.01	844.00
806.26	844.00
806.51	865.00
806.76	902.00
807.01	868.00
807.26	848.00
807.51	875.00
807.76	842.00
808.00	832.00
808.25	858.00
808.50	873.00
808.75	855.00
809.00	844.00
809.25	871.00
809.50	865.00
809.75	875.00
810.00	860.00
810.24	863.00
810.49	837.00
810.74	847.00
810.99	848.00
811.24	866.00
811.49	855.00
811.74	876.00
811.99	821.00
812.24	852.00
812.48	852.00
812.73	838.00
812.98	810.00
813.23	839.00
813.48	854.00
813.73	842.00
813.98	793.00
814.23	855.00
814.47	853.00
814.72	848.00
814.97	828.00
815.22	873.00
815.47	845.00
815.72	868.00
815.97	835.00
816.22	836.00
816.46	847.00
816.71	865.00
816.96	858.00
817.21	883.00
817.46	856.00
817.71	869.00
817.96	849.00
818.20	847.00
818.45	845.00
818.70	866.00
818.95	828.00
819.20	843.00
819.45	853.00
819.70	857.00
819.94	831.00
820.19	855.00
820.44	844.00
820.69	888.00
820.94	860.00
821.19	878.00
821.44	902.00
821.68	912.00
821.93	868.00
822.18	868.00
822.43	865.00
822.68	870.00
822.93	842.00
823.17	848.00
823.42	874.00
823.67	860.00
823.92	834.00
824.17	836.00
824.42	867.00
824.67	883.00
824.91	853.00
825.16	852.00
825.41	867.00
825.66	870.00
825.91	823.00
826.16	848.00
826.40	869.00
826.65	874.00
826.90	821.00
827.15	845.00
827.40	864.00
827.65	893.00
827.89	824.00
828.14	857.00
828.39	855.00
828.64	881.00
828.89	841.00
829.13	861.00
829.38	826.00
829.63	848.00
829.88	828.00
830.13	852.00
830.38	844.00
830.62	851.00
830.87	852.00
831.12	881.00
831.37	879.00
831.62	898.00
831.86	842.00
832.11	844.00
832.36	843.00
832.61	874.00
832.86	850.00
833.10	878.00
833.35	864.00
833.60	884.00
833.85	841.00
834.10	863.00
834.35	906.00
834.59	890.00
834.84	844.00
835.09	878.00
835.34	844.00
835.59	856.00
835.83	855.00
836.08	868.00
836.33	860.00
836.58	863.00
836.83	858.00
837.07	864.00
837.32	870.00
837.57	883.00
837.82	860.00
838.06	877.00
838.31	902.00
838.56	884.00
838.81	840.00
839.06	871.00
839.30	867.00
839.55	885.00
839.80	843.00
840.05	870.00
840.30	874.00
840.54	898.00
840.79	843.00
841.04	841.00
841.29	881.00
841.53	886.00
841.78	855.00
842.03	848.00
842.28	829.00
842.53	824.00
842.77	842.00
843.02	864.00
843.27	859.00
843.52	869.00
843.76	848.00
844.01	871.00
844.26	852.00
844.51	868.00
844.75	849.00
845.00	852.00
845.25	863.00
845.50	873.00
845.75	846.00
845.99	874.00
846.24	868.00
846.49	881.00
846.74	829.00
846.98	838.00
847.23	839.00
847.48	860.00
847.73	832.00
847.97	857.00
848.22	878.00
848.47	885.00
848.72	841.00
848.96	848.00
849.21	860.00
849.46	850.00
849.71	852.00
849.95	857.00
850.20	853.00
850.45	864.00
850.70	838.00
850.94	868.00
851.19	866.00
851.44	857.00
851.69	817.00
851.93	848.00
852.18	876.00
852.43	879.00
852.68	854.00
852.92	868.00
853.17	892.00
853.42	884.00
853.66	853.00
853.91	878.00
854.16	856.00
854.41	906.00
854.65	848.00
854.90	869.00
855.15	872.00
855.40	877.00
855.64	860.00
855.89	852.00
856.14	850.00
856.39	844.00
856.63	841.00
856.88	857.00
857.13	854.00
857.37	848.00
857.62	819.00
857.87	830.00
858.12	856.00
858.36	898.00
858.61	816.00
858.86	828.00
859.10	873.00
859.35	875.00
859.60	838.00
859.85	812.00
860.09	842.00
860.34	867.00
860.59	852.00
860.83	875.00
861.08	854.00
861.33	898.00
861.58	844.00
861.82	837.00
862.07	858.00
862.32	876.00
862.56	846.00
862.81	868.00
863.06	858.00
863.30	851.00
863.55	843.00
863.80	857.00
864.05	862.00
864.29	863.00
864.54	851.00
864.79	854.00
865.03	878.00
865.28	889.00
865.53	859.00
865.77	836.00
866.02	874.00
866.27	887.00
866.51	866.00
866.76	852.00
867.01	841.00
867.26	863.00
867.50	844.00
867.75	843.00
868.00	854.00
868.24	868.00
868.49	841.00
868.74	848.00
868.98	852.00
869.23	872.00
869.48	853.00
869.72	861.00
869.97	869.00
870.22	892.00
870.46	854.00
870.71	857.00
870.96	859.00
871.20	864.00
871.45	820.00
871.70	856.00
871.94	873.00
872.19	888.00
872.44	856.00
872.68	852.00
872.93	856.00
873.18	877.00
873.42	843.00
873.67	858.00
873.92	876.00
874.16	855.00
874.41	844.00
874.66	866.00
874.90	862.00
875.15	864.00
875.40	847.00
875.64	869.00
875.89	869.00
876.14	872.00
876.38	845.00
876.63	844.00
876.88	874.00
877.12	877.00
877.37	829.00
877.62	873.00
877.86	870.00
878.11	877.00
878.36	835.00
878.60	857.00
878.85	859.00
879.09	867.00
879.34	846.00
879.59	852.00
879.83	875.00
880.08	890.00
880.33	865.00
880.57	862.00
880.82	872.00
881.07	876.00
881.31	862.00
881.56	877.00
881.80	849.00
882.05	859.00
882.30	824.00
882.54	841.00
882.79	890.00
883.04	908.00
883.28	877.00
883.53	849.00
883.77	866.00
884.02	884.00
884.27	846.00
884.51	842.00
884.76	853.00
885.01	862.00
885.25	823.00
885.50	870.00
885.74	849.00
885.99	886.00
886.24	852.00
886.48	861.00
886.73	888.00
886.98	897.00
887.22	872.00
887.47	875.00
887.71	879.00
887.96	884.00
888.21	854.00
888.45	853.00
888.70	854.00
888.94	862.00
889.19	808.00
889.44	852.00
889.68	860.00
889.93	893.00
890.17	860.00
890.42	845.00
890.67	882.00
890.91	945.00
891.16	857.00
891.40	828.00
891.65	839.00
891.90	897.00
892.14	838.00
892.39	854.00
892.63	870.00
892.88	891.00
893.13	868.00
893.37	858.00
893.62	861.00
893.86	871.00
894.11	840.00
894.36	861.00
894.60	848.00
894.85	855.00
895.09	855.00
895.34	870.00
895.59	849.00
895.83	860.00
896.08	837.00
896.32	843.00
896.57	852.00
896.81	867.00
897.06	839.00
897.31	865.00
897.55	866.00
897.80	850.00
898.04	832.00
898.29	840.00
898.53	856.00
898.78	862.00
899.03	859.00
899.27	846.00
899.52	873.00
899.76	878.00
900.01	832.00
900.25	850.00
900.50	857.00
900.75	880.00
900.99	857.00
901.24	893.00
901.48	874.00
901.73	866.00
901.97	836.00
902.22	864.00
902.47	887.00
902.71	873.00
902.96	829.00
903.20	859.00
903.45	874.00
903.69	859.00
903.94	845.00
904.18	813.00
904.43	847.00
904.68	855.00
904.92	828.00
905.17	857.00
905.41	882.00
905.66	886.00
905.90	870.00
906.15	867.00
906.39	880.00
906.64	863.00
906.88	823.00
907.13	843.00
907.38	870.00
907.62	870.00
907.87	830.00
908.11	866.00
908.36	852.00
908.60	855.00
908.85	809.00
909.09	846.00
909.34	861.00
909.58	883.00
909.83	840.00
910.07	844.00
910.32	896.00
910.56	898.00
910.81	836.00
911.06	881.00
911.30	871.00
911.55	866.00
911.79	836.00
912.04	842.00
912.28	839.00
912.53	872.00
912.77	857.00
913.02	847.00
913.26	843.00
913.51	859.00
913.75	851.00
914.00	853.00
914.24	861.00
914.49	865.00
914.73	837.00
914.98	880.00
915.22	897.00
915.47	874.00
915.71	827.00
915.96	846.00
916.20	861.00
916.45	851.00
916.69	842.00
916.94	854.00
917.18	858.00
917.43	857.00
917.67	829.00
917.92	819.00
918.16	873.00
918.41	889.00
918.65	843.00
918.90	846.00
919.14	847.00
919.39	857.00
919.63	840.00
919.88	831.00
920.12	858.00
920.37	865.00
920.61	823.00
920.86	865.00
921.10	892.00
921.35	859.00
921.59	836.00
921.84	859.00
922.08	858.00
922.33	888.00
922.57	820.00
922.82	825.00
923.06	864.00
923.31	877.00
923.55	823.00
923.80	845.00
924.04	853.00
924.29	874.00
924.53	838.00
924.78	862.00
925.02	848.00
925.27	863.00
925.51	852.00
925.76	883.00
926.00	872.00
926.25	860.00
926.49	852.00
926.73	869.00
926.98	868.00
927.22	889.00
927.47	860.00
927.71	845.00
927.96	868.00
928.20	870.00
928.45	856.00
928.69	882.00
928.94	867.00
929.18	860.00
929.43	854.00
929.67	854.00
929.91	862.00
930.16	881.00
930.40	828.00
930.65	833.00
930.89	841.00
931.14	892.00
931.38	840.00
931.63	869.00
931.87	853.00
932.12	856.00
932.36	834.00
932.60	846.00
932.85	867.00
933.09	871.00
933.34	829.00
933.58	875.00
933.83	850.00
934.07	865.00
934.32	850.00
934.56	864.00
934.80	888.00
935.05	903.00
935.29	860.00
935.54	863.00
935.78	858.00
936.03	864.00
936.27	821.00
936.52	832.00
936.76	842.00
937.00	858.00
937.25	833.00
937.49	863.00
937.74	876.00
937.98	885.00
938.23	832.00
938.47	836.00
938.71	848.00
938.96	858.00
939.20	832.00
939.45	846.00
939.69	852.00
939.94	878.00
940.18	833.00
940.42	869.00
940.67	882.00
940.91	853.00
941.16	837.00
941.40	836.00
941.64	848.00
941.89	863.00
942.13	837.00
942.38	866.00
942.62	936.00
942.87	896.00
943.11	872.00
943.35	833.00
943.60	857.00
943.84	897.00
944.09	873.00
944.33	876.00
944.57	882.00
944.82	854.00
945.06	828.00
945.31	860.00
945.55	849.00
945.79	872.00
946.04	853.00
946.28	860.00
946.53	866.00
946.77	874.00
947.01	811.00
947.26	851.00
947.50	853.00
947.75	875.00
947.99	861.00
948.23	862.00
948.48	860.00
948.72	870.00
948.97	843.00
949.21	864.00
949.45	857.00
949.70	882.00
949.94	857.00
950.18	863.00
950.43	872.00
950.67	880.00
950.92	848.00
951.16	842.00
951.40	855.00
951.65	857.00
951.89	858.00
952.13	853.00
952.38	874.00
952.62	860.00
952.87	836.00
953.11	866.00
953.35	885.00
953.60	875.00
953.84	808.00
954.08	829.00
954.33	868.00
954.57	871.00
954.82	841.00
955.06	841.00
955.30	843.00
955.55	842.00
955.79	840.00
956.03	844.00
956.28	845.00
956.52	848.00
956.76	854.00
957.01	866.00
957.25	841.00
957.50	854.00
957.74	820.00
957.98	844.00
958.23	862.00
958.47	872.00
958.71	862.00
958.96	879.00
959.20	893.00
959.44	860.00
959.69	860.00
959.93	870.00
960.17	865.00
960.42	867.00
960.66	841.00
960.90	862.00
961.15	853.00
961.39	860.00
961.64	837.00
961.88	841.00
962.12	872.00
962.37	865.00
962.61	840.00
962.85	842.00
963.10	861.00
963.34	869.00
963.58	828.00
963.83	857.00
964.07	863.00
964.31	875.00
964.56	866.00
964.80	854.00
965.04	862.00
965.29	858.00
965.53	830.00
965.77	829.00
966.02	819.00
966.26	845.00
966.50	817.00
966.74	864.00
966.99	890.00
967.23	886.00
967.47	853.00
967.72	853.00
967.96	856.00
968.20	878.00
968.45	839.00
968.69	824.00
968.93	836.00
969.18	872.00
969.42	858.00
969.66	859.00
969.91	854.00
970.15	870.00
970.39	818.00
970.64	839.00
970.88	866.00
971.12	876.00
971.36	863.00
971.61	849.00
971.85	878.00
972.09	873.00
972.34	830.00
972.58	857.00
972.82	874.00
973.07	907.00
973.31	831.00
973.55	852.00
973.79	880.00
974.04	902.00
974.28	853.00
974.52	860.00
974.77	849.00
975.01	887.00
975.25	848.00
975.50	857.00
975.74	869.00
975.98	860.00
976.22	847.00
976.47	846.00
976.71	858.00
976.95	858.00
977.20	855.00
977.44	860.00
977.68	851.00
977.92	865.00
978.17	838.00
978.41	846.00
978.65	868.00
978.90	858.00
979.14	868.00
979.38	860.00
979.62	869.00
979.87	856.00
980.11	813.00
980.35	846.00
980.59	848.00
980.84	870.00
981.08	853.00
981.32	845.00
981.57	853.00
981.81	865.00
982.05	836.00
982.29	835.00
982.54	860.00
982.78	851.00
983.02	849.00
983.26	862.00
983.51	885.00
983.75	885.00
983.99	829.00
984.23	884.00
984.48	860.00
984.72	884.00
984.96	850.00
985.20	854.00
985.45	907.00
985.69	885.00
985.93	849.00
986.17	873.00
986.42	887.00
986.66	864.00
986.90	821.00
987.14	836.00
987.39	857.00
987.63	850.00
987.87	832.00
988.11	846.00
988.36	868.00
988.60	875.00
988.84	855.00
989.08	838.00
989.33	870.00
989.57	864.00
989.81	823.00
990.05	825.00
990.30	846.00
990.54	848.00
990.78	831.00
991.02	834.00
991.27	855.00
991.51	868.00
991.75	839.00
991.99	876.00
992.23	837.00
992.48	833.00
992.72	832.00
992.96	833.00
993.20	845.00
993.45	855.00
993.69	860.00
993.93	842.00
994.17	889.00
994.41	871.00
994.66	829.00
994.90	853.00
995.14	898.00
995.38	859.00
995.63	844.00
995.87	856.00
996.11	884.00
996.35	872.00
996.59	824.00
996.84	844.00
997.08	860.00
997.32	856.00
997.56	853.00
997.80	830.00
998.05	836.00
998.29	837.00
998.53	837.00
998.77	848.00
999.01	856.00
999.26	866.00
999.50	832.00
999.74	842.00
999.98	867.00
1000.22	883.00
1000.47	822.00
1000.71	841.00
1000.95	871.00
1001.19	855.00
1001.43	837.00
1001.68	843.00
1001.92	866.00
1002.16	858.00
1002.40	830.00
1002.64	844.00
1002.89	862.00
1003.13	869.00
1003.37	855.00
1003.61	829.00
1003.85	850.00
1004.10	851.00
1004.34	857.00
1004.58	835.00
1004.82	865.00
1005.06	863.00
1005.30	839.00
1005.55	839.00
1005.79	853.00
1006.03	858.00
1006.27	832.00
1006.51	842.00
1006.76	860.00
1007.00	874.00
1007.24	853.00
1007.48	865.00
1007.72	882.00
1007.96	861.00
1008.21	832.00
1008.45	848.00
1008.69	873.00
1008.93	886.00
1009.17	854.00
1009.41	874.00
1009.66	880.00
1009.90	852.00
1010.14	819.00
1010.38	844.00
1010.62	879.00
1010.86	882.00
1011.10	840.00
1011.35	846.00
1011.59	856.00
1011.83	843.00
1012.07	833.00
1012.31	854.00
1012.55	867.00
1012.80	883.00
1013.04	865.00
1013.28	864.00
1013.52	865.00
1013.76	873.00
1014.00	839.00
1014.24	863.00
1014.49	870.00
1014.73	890.00
1014.97	879.00
1015.21	865.00
1015.45	886.00
1015.69	857.00
1015.93	850.00
1016.18	845.00
1016.42	877.00
1016.66	898.00
1016.90	850.00
1017.14	831.00
1017.38	833.00
1017.62	857.00
1017.87	852.00
1018.11	843.00
1018.35	852.00
1018.59	867.00
1018.83	818.00
1019.07	849.00
1019.31	878.00
1019.55	880.00
1019.80	846.00
1020.04	852.00
1020.28	855.00
1020.52	871.00
1020.76	827.00
1021.00	830.00
1021.24	850.00
1021.48	850.00
1021.73	850.00
1021.97	852.00
1022.21	865.00
1022.45	882.00
1022.69	844.00
1022.93	833.00
1023.17	875.00
1023.41	894.00
1023.65	850.00
1023.90	865.00
1024.14	893.00
1024.38	858.00
1024.62	818.00
1024.86	852.00
1025.10	868.00
1025.34	882.00
1025.58	851.00
1025.82	854.00
1026.07	872.00
1026.31	865.00
1026.55	841.00
1026.79	841.00
1027.03	863.00
1027.27	874.00
1027.51	817.00
1027.75	818.00
1027.99	839.00
1028.23	892.00
1028.47	869.00
1028.72	845.00
1028.96	876.00
1029.20	874.00
1029.44	846.00
1029.68	853.00
1029.92	856.00
1030.16	888.00
1030.40	833.00
1030.64	855.00
1030.88	842.00
1031.12	850.00
1031.37	823.00
1031.61	854.00
1031.85	879.00
1032.09	894.00
1032.33	845.00
1032.57	885.00
1032.81	858.00
1033.05	898.00
1033.29	864.00
1033.53	860.00
1033.77	925.00
1034.01	892.00
1034.25	867.00
1034.50	861.00
1034.74	869.00
1034.98	883.00
1035.22	846.00
1035.46	857.00
1035.70	899.00
1035.94	893.00
1036.18	851.00
1036.42	844.00
1036.66	848.00
1036.90	852.00
1037.14	827.00
1037.38	862.00
1037.62	869.00
1037.86	859.00
1038.10	852.00
1038.35	852.00
1038.59	881.00
1038.83	871.00
1039.07	855.00
1039.31	876.00
1039.55	851.00
1039.79	857.00
1040.03	830.00
1040.27	817.00
1040.51	872.00
1040.75	888.00
1040.99	839.00
1041.23	855.00
1041.47	854.00
1041.71	884.00
1041.95	842.00
1042.19	842.00
1042.43	890.00
1042.67	890.00
1042.91	842.00
1043.15	838.00
1043.39	878.00
1043.64	868.00
1043.88	841.00
1044.12	858.00
1044.36	908.00
1044.60	887.00
1044.84	863.00
1045.08	872.00
1045.32	875.00
1045.56	889.00
1045.80	865.00
1046.04	858.00
1046.28	879.00
1046.52	868.00
1046.76	822.00
1047.00	837.00
1047.24	872.00
1047.48	863.00
1047.72	849.00
1047.96	839.00
1048.20	874.00
1048.44	874.00
1048.68	840.00
1048.92	850.00
1049.16	870.00
1049.40	878.00
1049.64	843.00
1049.88	858.00
1050.12	877.00
1050.36	892.00
1050.60	847.00
1050.84	848.00
1051.08	860.00
1051.32	854.00
1051.56	856.00
1051.80	849.00
1052.04	865.00
1052.28	876.00
1052.52	852.00
1052.76	833.00
1053.00	848.00
1053.24	876.00
1053.48	848.00
1053.72	850.00
1053.96	865.00
1054.20	870.00
1054.44	850.00
1054.68	868.00
1054.92	874.00
1055.16	849.00
1055.40	824.00
1055.64	849.00
1055.88	865.00
1056.12	885.00
1056.36	812.00
1056.60	840.00
1056.84	891.00
1057.08	880.00
1057.32	848.00
1057.56	849.00
1057.80	850.00
1058.04	882.00
1058.28	829.00
1058.52	846.00
1058.76	891.00
1059.00	884.00
1059.24	835.00
1059.48	834.00
1059.72	876.00
1059.96	868.00
1060.20	871.00
1060.44	883.00
1060.68	895.00
1060.92	881.00
1061.16	829.00
1061.40	840.00
1061.64	869.00
1061.88	853.00
1062.11	837.00
1062.35	823.00
1062.59	842.00
1062.83	871.00
1063.07	847.00
1063.31	828.00
1063.55	849.00
1063.79	884.00
1064.03	851.00
1064.27	838.00
1064.51	859.00
1064.75	873.00
1064.99	855.00
1065.23	853.00
1065.47	845.00
1065.71	860.00
1065.95	832.00
1066.19	847.00
1066.43	869.00
1066.67	878.00
1066.91	867.00
1067.15	868.00
1067.38	860.00
1067.62	873.00
1067.86	851.00
1068.10	863.00
1068.34	898.00
1068.58	907.00
1068.82	859.00
1069.06	829.00
1069.30	869.00
1069.54	881.00
1069.78	859.00
1070.02	844.00
1070.26	869.00
1070.50	893.00
1070.74	853.00
1070.98	873.00
1071.21	893.00
1071.45	889.00
1071.69	825.00
1071.93	847.00
1072.17	874.00
1072.41	878.00
1072.65	859.00
1072.89	876.00
1073.13	864.00
1073.37	858.00
1073.61	837.00
1073.85	858.00
1074.09	846.00
1074.32	853.00
1074.56	846.00
1074.80	926.00
1075.04	1122.00
1075.28	957.00
1075.52	859.00
1075.76	871.00
1076.00	885.00
1076.24	880.00
1076.48	875.00
1076.72	878.00
1076.96	890.00
1077.19	877.00
1077.43	838.00
1077.67	873.00
1077.91	868.00
1078.15	848.00
1078.39	849.00
1078.63	829.00
1078.87	846.00
1079.11	861.00
1079.35	841.00
1079.58	839.00
1079.82	869.00
1080.06	853.00
1080.30	813.00
1080.54	856.00
1080.78	894.00
1081.02	873.00
1081.26	862.00
1081.50	884.00
1081.74	871.00
1081.97	888.00
1082.21	862.00
1082.45	872.00
1082.69	860.00
1082.93	854.00
1083.17	856.00
1083.41	841.00
1083.65	886.00
1083.88	883.00
1084.12	857.00
1084.36	859.00
1084.60	886.00
1084.84	871.00
1085.08	825.00
1085.32	856.00
1085.56	873.00
1085.80	870.00
1086.03	849.00
1086.27	833.00
1086.51	862.00
1086.75	883.00
1086.99	847.00
1087.23	838.00
1087.47	871.00
1087.70	863.00
1087.94	854.00
1088.18	881.00
1088.42	920.00
1088.66	874.00
1088.90	821.00
1089.14	849.00
1089.38	876.00
1089.61	886.00
1089.85	856.00
1090.09	845.00
1090.33	900.00
1090.57	890.00
1090.81	825.00
1091.05	851.00
1091.28	875.00
1091.52	876.00
1091.76	838.00
1092.00	836.00
1092.24	850.00
1092.48	875.00
1092.71	837.00
1092.95	865.00
1093.19	870.00
1093.43	865.00
1093.67	841.00
1093.91	848.00
1094.15	872.00
1094.38	878.00
1094.62	838.00
1094.86	836.00
1095.10	841.00
1095.34	852.00
1095.58	835.00
1095.81	851.00
1096.05	887.00
1096.29	893.00
1096.53	833.00
1096.77	840.00
1097.01	842.00
1097.24	883.00
1097.48	836.00
1097.72	854.00
1097.96	886.00
1098.20	873.00
1098.44	826.00
1098.67	821.00
1098.91	877.00
1099.15	877.00
1099.39	837.00
1099.63	860.00
1099.86	887.00
1100.10	871.00
1100.34	857.00
1100.58	841.00
1100.82	854.00
1101.06	865.00
1101.29	837.00
1101.53	854.00
1101.77	862.00
1102.01	853.00
1102.25	856.00
1102.48	876.00
1102.72	893.00
1102.96	857.00
1103.20	808.00
1103.44	835.00
1103.67	866.00
1103.91	894.00
1104.15	831.00
1104.39	836.00
1104.63	860.00
1104.86	851.00
1105.10	832.00
1105.34	840.00
1105.58	847.00
1105.82	859.00
1106.05	846.00
1106.29	862.00
1106.53	867.00
1106.77	892.00
1107.01	836.00
1107.24	868.00
1107.48	898.00
1107.72	870.00
1107.96	818.00
1108.20	843.00
1108.43	852.00
1108.67	844.00
1108.91	845.00
1109.15	838.00
1109.39	843.00
1109.62	860.00
1109.86	827.00
1110.10	837.00
1110.34	895.00
1110.57	906.00
1110.81	855.00
1111.05	867.00
1111.29	901.00
1111.53	906.00
1111.76	848.00
1112.00	880.00
1112.24	900.00
1112.48	874.00
1112.71	821.00
1112.95	829.00
1113.19	886.00
1113.43	880.00
1113.66	823.00
1113.90	860.00
1114.14	860.00
1114.38	881.00
1114.62	830.00
1114.85	875.00
1115.09	873.00
1115.33	909.00
1115.57	869.00
1115.80	857.00
1116.04	857.00
1116.28	852.00
1116.52	852.00
1116.75	849.00
1116.99	887.00
1117.23	883.00
1117.47	849.00
1117.70	884.00
1117.94	925.00
1118.18	864.00
1118.42	840.00
1118.65	860.00
1118.89	873.00
1119.13	869.00
1119.37	840.00
1119.60	847.00
1119.84	873.00
>>>>>End Processed Spectral Data<<<<<
