SpectraSuite Data File
++++++++++++++++++++++++++++++++++++
Date: Fri Dec 06 16:07:56 CET 2024
User: student
Dark Spectrum Present: No
Reference Spectrum Present: No
Number of Sampled Component Spectra: 1
Spectrometers: HR4C155
Integration Time (usec): 100000 (HR4C155)
Spectra Averaged: 1 (HR4C155)
Boxcar Smoothing: 0 (HR4C155)
Correct for Electrical Dark: No (HR4C155)
Strobe/Lamp Enabled: No (HR4C155)
Correct for Detector Non-linearity: No (HR4C155)
Correct for Stray Light: No (HR4C155)
Number of Pixels in Processed Spectrum: 3648
>>>>>Begin Processed Spectral Data<<<<<
195.39	762.00
195.66	762.00
195.93	762.00
196.20	670.00
196.46	715.00
196.73	849.00
197.00	848.00
197.27	834.00
197.54	864.00
197.81	863.00
198.08	871.00
198.35	891.00
198.61	914.00
198.88	878.00
199.15	853.00
199.42	877.00
199.69	891.00
199.96	870.00
200.23	895.00
200.49	889.00
200.76	919.00
201.03	899.00
201.30	884.00
201.57	929.00
201.84	956.00
202.11	905.00
202.38	924.00
202.64	933.00
202.91	939.00
203.18	877.00
203.45	922.00
203.72	1006.00
203.99	937.00
204.25	920.00
204.52	916.00
204.79	932.00
205.06	932.00
205.33	884.00
205.60	906.00
205.87	950.00
206.13	933.00
206.40	909.00
206.67	903.00
206.94	954.00
207.21	946.00
207.48	923.00
207.75	914.00
208.01	953.00
208.28	967.00
208.55	899.00
208.82	910.00
209.09	930.00
209.36	943.00
209.62	930.00
209.89	941.00
210.16	952.00
210.43	964.00
210.70	903.00
210.97	918.00
211.23	931.00
211.50	944.00
211.77	897.00
212.04	907.00
212.31	921.00
212.58	948.00
212.84	912.00
213.11	910.00
213.38	900.00
213.65	921.00
213.92	912.00
214.18	905.00
214.45	970.00
214.72	959.00
214.99	882.00
215.26	899.00
215.53	899.00
215.79	941.00
216.06	931.00
216.33	939.00
216.60	905.00
216.87	941.00
217.13	867.00
217.40	883.00
217.67	953.00
217.94	964.00
218.21	902.00
218.48	956.00
218.74	997.00
219.01	964.00
219.28	877.00
219.55	883.00
219.82	937.00
220.08	946.00
220.35	890.00
220.62	902.00
220.89	950.00
221.16	981.00
221.42	920.00
221.69	930.00
221.96	947.00
222.23	970.00
222.50	945.00
222.76	949.00
223.03	948.00
223.30	917.00
223.57	889.00
223.84	875.00
224.10	894.00
224.37	941.00
224.64	906.00
224.91	931.00
225.18	962.00
225.44	969.00
225.71	899.00
225.98	915.00
226.25	954.00
226.51	973.00
226.78	901.00
227.05	905.00
227.32	923.00
227.59	934.00
227.85	929.00
228.12	927.00
228.39	959.00
228.66	968.00
228.92	944.00
229.19	928.00
229.46	954.00
229.73	927.00
230.00	913.00
230.26	928.00
230.53	948.00
230.80	939.00
231.07	879.00
231.33	889.00
231.60	925.00
231.87	946.00
232.14	927.00
232.41	953.00
232.67	940.00
232.94	947.00
233.21	884.00
233.48	920.00
233.74	930.00
234.01	930.00
234.28	894.00
234.55	905.00
234.81	907.00
235.08	957.00
235.35	915.00
235.62	901.00
235.88	920.00
236.15	936.00
236.42	913.00
236.69	925.00
236.95	940.00
237.22	919.00
237.49	908.00
237.76	901.00
238.02	962.00
238.29	979.00
238.56	909.00
238.83	894.00
239.09	912.00
239.36	965.00
239.63	904.00
239.90	911.00
240.16	969.00
240.43	985.00
240.70	903.00
240.97	912.00
241.23	933.00
241.50	932.00
241.77	911.00
242.04	922.00
242.30	891.00
242.57	898.00
242.84	891.00
243.11	913.00
243.37	889.00
243.64	943.00
243.91	908.00
244.18	913.00
244.44	906.00
244.71	921.00
244.98	927.00
245.24	906.00
245.51	926.00
245.78	954.00
246.05	880.00
246.31	905.00
246.58	934.00
246.85	914.00
247.12	903.00
247.38	940.00
247.65	929.00
247.92	955.00
248.18	927.00
248.45	917.00
248.72	906.00
248.99	926.00
249.25	886.00
249.52	907.00
249.79	945.00
250.05	920.00
250.32	899.00
250.59	893.00
250.86	911.00
251.12	929.00
251.39	900.00
251.66	918.00
251.92	947.00
252.19	944.00
252.46	894.00
252.73	932.00
252.99	961.00
253.26	951.00
253.53	891.00
253.79	923.00
254.06	927.00
254.33	898.00
254.60	885.00
254.86	902.00
255.13	950.00
255.40	970.00
255.66	922.00
255.93	942.00
256.20	934.00
256.46	933.00
256.73	907.00
257.00	914.00
257.26	923.00
257.53	943.00
257.80	927.00
258.07	940.00
258.33	975.00
258.60	954.00
258.87	888.00
259.13	922.00
259.40	908.00
259.67	955.00
259.93	922.00
260.20	937.00
260.47	951.00
260.73	924.00
261.00	904.00
261.27	916.00
261.53	962.00
261.80	923.00
262.07	873.00
262.34	898.00
262.60	898.00
262.87	942.00
263.14	898.00
263.40	921.00
263.67	901.00
263.94	890.00
264.20	909.00
264.47	900.00
264.74	906.00
265.00	909.00
265.27	867.00
265.54	902.00
265.80	934.00
266.07	945.00
266.34	895.00
266.60	916.00
266.87	920.00
267.14	941.00
267.40	890.00
267.67	890.00
267.94	938.00
268.20	920.00
268.47	881.00
268.74	886.00
269.00	913.00
269.27	910.00
269.54	855.00
269.80	884.00
270.07	937.00
270.33	903.00
270.60	903.00
270.87	942.00
271.13	915.00
271.40	909.00
271.67	853.00
271.93	864.00
272.20	937.00
272.47	907.00
272.73	866.00
273.00	903.00
273.27	933.00
273.53	960.00
273.80	908.00
274.07	878.00
274.33	892.00
274.60	932.00
274.86	901.00
275.13	906.00
275.40	902.00
275.66	956.00
275.93	908.00
276.20	878.00
276.46	885.00
276.73	901.00
277.00	896.00
277.26	930.00
277.53	948.00
277.79	920.00
278.06	883.00
278.33	939.00
278.59	958.00
278.86	912.00
279.13	907.00
279.39	930.00
279.66	956.00
279.93	950.00
280.19	880.00
280.46	893.00
280.72	919.00
280.99	931.00
281.26	887.00
281.52	883.00
281.79	916.00
282.05	918.00
282.32	890.00
282.59	911.00
282.85	937.00
283.12	949.00
283.39	913.00
283.65	916.00
283.92	924.00
284.18	955.00
284.45	911.00
284.72	901.00
284.98	915.00
285.25	896.00
285.51	917.00
285.78	921.00
286.05	919.00
286.31	929.00
286.58	873.00
286.84	885.00
287.11	909.00
287.38	932.00
287.64	935.00
287.91	906.00
288.17	918.00
288.44	933.00
288.71	875.00
288.97	921.00
289.24	949.00
289.50	915.00
289.77	910.00
290.04	880.00
290.30	890.00
290.57	938.00
290.83	886.00
291.10	881.00
291.37	934.00
291.63	917.00
291.90	928.00
292.16	916.00
292.43	927.00
292.70	906.00
292.96	874.00
293.23	886.00
293.49	895.00
293.76	928.00
294.02	893.00
294.29	881.00
294.56	933.00
294.82	936.00
295.09	883.00
295.35	886.00
295.62	937.00
295.89	953.00
296.15	897.00
296.42	895.00
296.68	910.00
296.95	915.00
297.21	907.00
297.48	904.00
297.75	919.00
298.01	958.00
298.28	897.00
298.54	926.00
298.81	929.00
299.07	940.00
299.34	887.00
299.61	913.00
299.87	930.00
300.14	907.00
300.40	911.00
300.67	926.00
300.93	928.00
301.20	957.00
301.46	874.00
301.73	897.00
302.00	915.00
302.26	913.00
302.53	918.00
302.79	912.00
303.06	918.00
303.32	963.00
303.59	895.00
303.85	889.00
304.12	918.00
304.39	943.00
304.65	897.00
304.92	916.00
305.18	913.00
305.45	927.00
305.71	900.00
305.98	920.00
306.24	899.00
306.51	902.00
306.77	901.00
307.04	900.00
307.31	925.00
307.57	933.00
307.84	883.00
308.10	902.00
308.37	893.00
308.63	909.00
308.90	890.00
309.16	928.00
309.43	963.00
309.69	915.00
309.96	903.00
310.22	893.00
310.49	916.00
310.76	942.00
311.02	885.00
311.29	907.00
311.55	897.00
311.82	908.00
312.08	906.00
312.35	904.00
312.61	930.00
312.88	956.00
313.14	902.00
313.41	876.00
313.67	884.00
313.94	928.00
314.20	910.00
314.47	917.00
314.73	928.00
315.00	921.00
315.26	888.00
315.53	916.00
315.79	932.00
316.06	931.00
316.32	907.00
316.59	923.00
316.85	921.00
317.12	926.00
317.39	877.00
317.65	897.00
317.92	892.00
318.18	914.00
318.45	907.00
318.71	943.00
318.98	941.00
319.24	930.00
319.51	906.00
319.77	905.00
320.04	900.00
320.30	901.00
320.57	886.00
320.83	905.00
321.10	885.00
321.36	917.00
321.63	888.00
321.89	899.00
322.16	958.00
322.42	932.00
322.69	891.00
322.95	886.00
323.22	913.00
323.48	944.00
323.75	884.00
324.01	903.00
324.28	926.00
324.54	938.00
324.80	902.00
325.07	937.00
325.33	946.00
325.60	919.00
325.86	875.00
326.13	889.00
326.39	931.00
326.66	918.00
326.92	851.00
327.19	890.00
327.45	955.00
327.72	941.00
327.98	891.00
328.25	898.00
328.51	932.00
328.78	916.00
329.04	896.00
329.31	927.00
329.57	916.00
329.84	917.00
330.10	890.00
330.37	890.00
330.63	930.00
330.89	943.00
331.16	903.00
331.42	890.00
331.69	930.00
331.95	917.00
332.22	912.00
332.48	944.00
332.75	927.00
333.01	892.00
333.28	899.00
333.54	906.00
333.81	919.00
334.07	931.00
334.34	919.00
334.60	920.00
334.86	954.00
335.13	973.00
335.39	906.00
335.66	887.00
335.92	933.00
336.19	917.00
336.45	880.00
336.72	895.00
336.98	909.00
337.24	909.00
337.51	862.00
337.77	891.00
338.04	928.00
338.30	927.00
338.57	886.00
338.83	905.00
339.10	937.00
339.36	939.00
339.63	891.00
339.89	866.00
340.15	890.00
340.42	925.00
340.68	923.00
340.95	918.00
341.21	918.00
341.48	910.00
341.74	867.00
342.00	855.00
342.27	916.00
342.53	927.00
342.80	890.00
343.06	900.00
343.33	935.00
343.59	955.00
343.85	899.00
344.12	902.00
344.38	971.00
344.65	952.00
344.91	901.00
345.18	891.00
345.44	896.00
345.70	900.00
345.97	852.00
346.23	882.00
346.50	928.00
346.76	929.00
347.03	915.00
347.29	908.00
347.55	901.00
347.82	904.00
348.08	865.00
348.35	877.00
348.61	948.00
348.87	947.00
349.14	883.00
349.40	882.00
349.67	924.00
349.93	913.00
350.20	899.00
350.46	905.00
350.72	932.00
350.99	918.00
351.25	908.00
351.52	900.00
351.78	910.00
352.04	918.00
352.31	897.00
352.57	906.00
352.84	904.00
353.10	920.00
353.36	921.00
353.63	892.00
353.89	902.00
354.16	924.00
354.42	900.00
354.68	908.00
354.95	945.00
355.21	948.00
355.48	892.00
355.74	926.00
356.00	954.00
356.27	952.00
356.53	883.00
356.80	889.00
357.06	925.00
357.32	939.00
357.59	919.00
357.85	928.00
358.11	960.00
358.38	925.00
358.64	900.00
358.91	890.00
359.17	913.00
359.43	927.00
359.70	907.00
359.96	905.00
360.22	947.00
360.49	913.00
360.75	903.00
361.02	865.00
361.28	900.00
361.54	933.00
361.81	888.00
362.07	899.00
362.33	891.00
362.60	902.00
362.86	887.00
363.13	892.00
363.39	923.00
363.65	930.00
363.92	854.00
364.18	861.00
364.44	908.00
364.71	929.00
364.97	897.00
365.24	903.00
365.50	933.00
365.76	946.00
366.03	903.00
366.29	925.00
366.55	941.00
366.82	915.00
367.08	892.00
367.34	908.00
367.61	939.00
367.87	934.00
368.13	913.00
368.40	913.00
368.66	969.00
368.93	927.00
369.19	853.00
369.45	883.00
369.72	915.00
369.98	891.00
370.24	872.00
370.51	896.00
370.77	906.00
371.03	907.00
371.30	896.00
371.56	911.00
371.82	927.00
372.09	928.00
372.35	908.00
372.61	912.00
372.88	913.00
373.14	932.00
373.40	896.00
373.67	907.00
373.93	925.00
374.19	938.00
374.46	896.00
374.72	897.00
374.98	924.00
375.25	924.00
375.51	906.00
375.77	940.00
376.04	943.00
376.30	940.00
376.56	884.00
376.83	902.00
377.09	925.00
377.35	917.00
377.62	895.00
377.88	888.00
378.14	897.00
378.41	936.00
378.67	898.00
378.93	888.00
379.20	921.00
379.46	903.00
379.72	887.00
379.99	890.00
380.25	899.00
380.51	890.00
380.77	882.00
381.04	912.00
381.30	936.00
381.56	954.00
381.83	906.00
382.09	893.00
382.35	921.00
382.62	949.00
382.88	920.00
383.14	893.00
383.41	908.00
383.67	916.00
383.93	923.00
384.20	910.00
384.46	913.00
384.72	944.00
384.98	883.00
385.25	915.00
385.51	931.00
385.77	908.00
386.04	887.00
386.30	884.00
386.56	925.00
386.82	968.00
387.09	894.00
387.35	904.00
387.61	978.00
387.88	925.00
388.14	906.00
388.40	916.00
388.67	898.00
388.93	897.00
389.19	910.00
389.45	911.00
389.72	919.00
389.98	921.00
390.24	881.00
390.51	877.00
390.77	926.00
391.03	945.00
391.29	892.00
391.56	897.00
391.82	919.00
392.08	952.00
392.35	891.00
392.61	891.00
392.87	924.00
393.13	948.00
393.40	889.00
393.66	899.00
393.92	916.00
394.18	914.00
394.45	853.00
394.71	880.00
394.97	914.00
395.24	901.00
395.50	863.00
395.76	917.00
396.02	932.00
396.29	912.00
396.55	847.00
396.81	843.00
397.07	913.00
397.34	897.00
397.60	866.00
397.86	863.00
398.12	881.00
398.39	931.00
398.65	878.00
398.91	880.00
399.17	914.00
399.44	888.00
399.70	849.00
399.96	863.00
400.22	899.00
400.49	934.00
400.75	904.00
401.01	892.00
401.27	890.00
401.54	924.00
401.80	893.00
402.06	890.00
402.32	926.00
402.59	908.00
402.85	871.00
403.11	890.00
403.37	890.00
403.64	930.00
403.90	890.00
404.16	898.00
404.42	896.00
404.69	905.00
404.95	892.00
405.21	857.00
405.47	906.00
405.74	938.00
406.00	884.00
406.26	879.00
406.52	910.00
406.79	918.00
407.05	893.00
407.31	911.00
407.57	903.00
407.83	896.00
408.10	878.00
408.36	871.00
408.62	911.00
408.88	907.00
409.15	874.00
409.41	844.00
409.67	874.00
409.93	923.00
410.20	889.00
410.46	887.00
410.72	885.00
410.98	890.00
411.24	882.00
411.51	905.00
411.77	901.00
412.03	925.00
412.29	927.00
412.55	926.00
412.82	904.00
413.08	920.00
413.34	930.00
413.60	900.00
413.87	897.00
414.13	909.00
414.39	869.00
414.65	904.00
414.91	918.00
415.18	907.00
415.44	862.00
415.70	888.00
415.96	906.00
416.22	909.00
416.49	881.00
416.75	890.00
417.01	910.00
417.27	890.00
417.53	876.00
417.80	898.00
418.06	939.00
418.32	937.00
418.58	887.00
418.84	892.00
419.11	917.00
419.37	924.00
419.63	873.00
419.89	883.00
420.15	902.00
420.42	909.00
420.68	878.00
420.94	895.00
421.20	905.00
421.46	925.00
421.72	902.00
421.99	895.00
422.25	906.00
422.51	924.00
422.77	887.00
423.03	912.00
423.30	914.00
423.56	930.00
423.82	923.00
424.08	904.00
424.34	903.00
424.60	920.00
424.87	893.00
425.13	887.00
425.39	910.00
425.65	918.00
425.91	876.00
426.18	896.00
426.44	909.00
426.70	886.00
426.96	832.00
427.22	846.00
427.48	880.00
427.75	901.00
428.01	865.00
428.27	880.00
428.53	933.00
428.79	896.00
429.05	874.00
429.32	888.00
429.58	933.00
429.84	888.00
430.10	918.00
430.36	921.00
430.62	944.00
430.88	930.00
431.15	908.00
431.41	905.00
431.67	920.00
431.93	886.00
432.19	846.00
432.45	888.00
432.72	908.00
432.98	904.00
433.24	903.00
433.50	990.00
433.76	906.00
434.02	885.00
434.28	866.00
434.55	890.00
434.81	925.00
435.07	942.00
435.33	874.00
435.59	882.00
435.85	892.00
436.11	918.00
436.38	872.00
436.64	872.00
436.90	897.00
437.16	903.00
437.42	892.00
437.68	904.00
437.94	909.00
438.21	942.00
438.47	911.00
438.73	903.00
438.99	911.00
439.25	916.00
439.51	873.00
439.77	900.00
440.03	904.00
440.30	924.00
440.56	907.00
440.82	914.00
441.08	907.00
441.34	899.00
441.60	885.00
441.86	884.00
442.12	908.00
442.39	912.00
442.65	881.00
442.91	881.00
443.17	895.00
443.43	909.00
443.69	898.00
443.95	886.00
444.21	875.00
444.47	909.00
444.74	878.00
445.00	894.00
445.26	891.00
445.52	909.00
445.78	884.00
446.04	866.00
446.30	920.00
446.56	920.00
446.82	889.00
447.09	897.00
447.35	921.00
447.61	933.00
447.87	896.00
448.13	898.00
448.39	953.00
448.65	929.00
448.91	873.00
449.17	876.00
449.43	889.00
449.70	901.00
449.96	868.00
450.22	877.00
450.48	916.00
450.74	949.00
451.00	894.00
451.26	879.00
451.52	904.00
451.78	879.00
452.04	864.00
452.31	914.00
452.57	926.00
452.83	885.00
453.09	864.00
453.35	873.00
453.61	895.00
453.87	901.00
454.13	906.00
454.39	919.00
454.65	958.00
454.91	944.00
455.17	868.00
455.44	873.00
455.70	911.00
455.96	921.00
456.22	868.00
456.48	893.00
456.74	915.00
457.00	885.00
457.26	837.00
457.52	863.00
457.78	891.00
458.04	928.00
458.30	866.00
458.56	885.00
458.82	897.00
459.09	886.00
459.35	835.00
459.61	868.00
459.87	920.00
460.13	922.00
460.39	886.00
460.65	872.00
460.91	921.00
461.17	898.00
461.43	863.00
461.69	866.00
461.95	926.00
462.21	900.00
462.47	893.00
462.73	919.00
462.99	915.00
463.26	914.00
463.52	857.00
463.78	854.00
464.04	879.00
464.30	905.00
464.56	868.00
464.82	887.00
465.08	933.00
465.34	944.00
465.60	916.00
465.86	897.00
466.12	901.00
466.38	883.00
466.64	877.00
466.90	897.00
467.16	917.00
467.42	935.00
467.68	863.00
467.94	891.00
468.20	944.00
468.46	911.00
468.72	898.00
468.98	893.00
469.25	915.00
469.51	879.00
469.77	908.00
470.03	900.00
470.29	904.00
470.55	919.00
470.81	876.00
471.07	898.00
471.33	909.00
471.59	925.00
471.85	883.00
472.11	908.00
472.37	921.00
472.63	902.00
472.89	888.00
473.15	884.00
473.41	897.00
473.67	889.00
473.93	856.00
474.19	859.00
474.45	886.00
474.71	907.00
474.97	883.00
475.23	886.00
475.49	893.00
475.75	908.00
476.01	900.00
476.27	920.00
476.53	924.00
476.79	912.00
477.05	892.00
477.31	890.00
477.57	918.00
477.83	915.00
478.09	863.00
478.35	903.00
478.61	933.00
478.87	916.00
479.13	875.00
479.39	912.00
479.65	938.00
479.91	933.00
480.17	898.00
480.43	908.00
480.69	896.00
480.95	920.00
481.21	894.00
481.47	892.00
481.73	906.00
481.99	889.00
482.25	856.00
482.51	868.00
482.77	928.00
483.03	915.00
483.29	900.00
483.55	876.00
483.81	926.00
484.07	931.00
484.33	885.00
484.59	884.00
484.85	925.00
485.11	919.00
485.37	874.00
485.63	878.00
485.89	881.00
486.15	885.00
486.41	863.00
486.67	882.00
486.93	906.00
487.19	889.00
487.45	871.00
487.71	893.00
487.97	924.00
488.23	920.00
488.49	871.00
488.75	865.00
489.01	909.00
489.27	926.00
489.53	872.00
489.79	865.00
490.05	889.00
490.31	922.00
490.57	903.00
490.83	940.00
491.08	902.00
491.34	882.00
491.60	862.00
491.86	896.00
492.12	945.00
492.38	944.00
492.64	877.00
492.90	865.00
493.16	911.00
493.42	900.00
493.68	867.00
493.94	888.00
494.20	884.00
494.46	911.00
494.72	878.00
494.98	887.00
495.24	890.00
495.50	916.00
495.76	895.00
496.02	909.00
496.28	925.00
496.54	917.00
496.80	897.00
497.05	847.00
497.31	885.00
497.57	897.00
497.83	873.00
498.09	916.00
498.35	925.00
498.61	934.00
498.87	902.00
499.13	899.00
499.39	912.00
499.65	894.00
499.91	887.00
500.17	867.00
500.43	956.00
500.69	985.00
500.95	886.00
501.20	898.00
501.46	919.00
501.72	910.00
501.98	908.00
502.24	905.00
502.50	914.00
502.76	898.00
503.02	873.00
503.28	899.00
503.54	935.00
503.80	942.00
504.06	925.00
504.32	921.00
504.58	924.00
504.83	913.00
505.09	881.00
505.35	881.00
505.61	885.00
505.87	903.00
506.13	902.00
506.39	889.00
506.65	932.00
506.91	950.00
507.17	901.00
507.43	876.00
507.68	907.00
507.94	946.00
508.20	894.00
508.46	866.00
508.72	923.00
508.98	929.00
509.24	866.00
509.50	906.00
509.76	901.00
510.02	913.00
510.28	867.00
510.53	881.00
510.79	932.00
511.05	901.00
511.31	858.00
511.57	895.00
511.83	908.00
512.09	932.00
512.35	871.00
512.61	883.00
512.87	908.00
513.12	911.00
513.38	871.00
513.64	901.00
513.90	930.00
514.16	956.00
514.42	913.00
514.68	910.00
514.94	935.00
515.20	926.00
515.45	880.00
515.71	898.00
515.97	899.00
516.23	888.00
516.49	850.00
516.75	868.00
517.01	901.00
517.27	901.00
517.53	865.00
517.78	885.00
518.04	892.00
518.30	891.00
518.56	867.00
518.82	919.00
519.08	951.00
519.34	893.00
519.60	879.00
519.85	899.00
520.11	910.00
520.37	902.00
520.63	875.00
520.89	893.00
521.15	900.00
521.41	885.00
521.66	858.00
521.92	889.00
522.18	942.00
522.44	918.00
522.70	878.00
522.96	871.00
523.22	911.00
523.48	918.00
523.73	881.00
523.99	881.00
524.25	938.00
524.51	921.00
524.77	877.00
525.03	871.00
525.29	921.00
525.54	916.00
525.80	874.00
526.06	874.00
526.32	897.00
526.58	902.00
526.84	856.00
527.09	855.00
527.35	887.00
527.61	906.00
527.87	890.00
528.13	912.00
528.39	904.00
528.65	887.00
528.90	844.00
529.16	861.00
529.42	862.00
529.68	885.00
529.94	858.00
530.20	871.00
530.45	877.00
530.71	901.00
530.97	867.00
531.23	876.00
531.49	906.00
531.75	888.00
532.00	882.00
532.26	871.00
532.52	914.00
532.78	886.00
533.04	867.00
533.30	891.00
533.55	905.00
533.81	898.00
534.07	853.00
534.33	886.00
534.59	919.00
534.85	913.00
535.10	873.00
535.36	857.00
535.62	905.00
535.88	894.00
536.14	873.00
536.39	876.00
536.65	931.00
536.91	922.00
537.17	869.00
537.43	876.00
537.69	940.00
537.94	886.00
538.20	869.00
538.46	897.00
538.72	893.00
538.98	906.00
539.23	871.00
539.49	869.00
539.75	941.00
540.01	916.00
540.27	873.00
540.52	917.00
540.78	916.00
541.04	917.00
541.30	859.00
541.56	862.00
541.81	941.00
542.07	974.00
542.33	899.00
542.59	893.00
542.85	904.00
543.10	914.00
543.36	878.00
543.62	898.00
543.88	900.00
544.14	894.00
544.39	868.00
544.65	894.00
544.91	946.00
545.17	905.00
545.43	867.00
545.68	868.00
545.94	907.00
546.20	924.00
546.46	870.00
546.71	884.00
546.97	890.00
547.23	913.00
547.49	881.00
547.75	879.00
548.00	905.00
548.26	935.00
548.52	870.00
548.78	872.00
549.03	880.00
549.29	902.00
549.55	869.00
549.81	889.00
550.07	918.00
550.32	915.00
550.58	862.00
550.84	897.00
551.10	906.00
551.35	886.00
551.61	865.00
551.87	901.00
552.13	910.00
552.39	869.00
552.64	845.00
552.90	874.00
553.16	904.00
553.42	916.00
553.67	870.00
553.93	889.00
554.19	926.00
554.45	932.00
554.70	887.00
554.96	872.00
555.22	888.00
555.48	923.00
555.73	876.00
555.99	898.00
556.25	927.00
556.51	909.00
556.76	870.00
557.02	895.00
557.28	930.00
557.54	898.00
557.79	881.00
558.05	905.00
558.31	885.00
558.57	925.00
558.82	875.00
559.08	845.00
559.34	854.00
559.60	885.00
559.85	878.00
560.11	872.00
560.37	880.00
560.63	880.00
560.88	861.00
561.14	873.00
561.40	920.00
561.66	902.00
561.91	863.00
562.17	871.00
562.43	907.00
562.68	941.00
562.94	917.00
563.20	904.00
563.46	930.00
563.71	930.00
563.97	867.00
564.23	881.00
564.49	917.00
564.74	898.00
565.00	872.00
565.26	888.00
565.51	887.00
565.77	876.00
566.03	850.00
566.29	888.00
566.54	890.00
566.80	891.00
567.06	858.00
567.31	903.00
567.57	930.00
567.83	883.00
568.09	885.00
568.34	878.00
568.60	912.00
568.86	933.00
569.11	904.00
569.37	881.00
569.63	908.00
569.89	924.00
570.14	837.00
570.40	862.00
570.66	891.00
570.91	902.00
571.17	871.00
571.43	906.00
571.69	919.00
571.94	920.00
572.20	870.00
572.46	890.00
572.71	913.00
572.97	913.00
573.23	884.00
573.48	867.00
573.74	892.00
574.00	933.00
574.26	876.00
574.51	862.00
574.77	907.00
575.03	917.00
575.28	892.00
575.54	864.00
575.80	875.00
576.05	884.00
576.31	844.00
576.57	860.00
576.82	894.00
577.08	900.00
577.34	874.00
577.59	876.00
577.85	915.00
578.11	886.00
578.37	874.00
578.62	857.00
578.88	929.00
579.14	913.00
579.39	889.00
579.65	904.00
579.91	903.00
580.16	906.00
580.42	876.00
580.68	901.00
580.93	917.00
581.19	898.00
581.45	850.00
581.70	902.00
581.96	902.00
582.22	915.00
582.47	886.00
582.73	898.00
582.99	930.00
583.24	921.00
583.50	858.00
583.76	876.00
584.01	887.00
584.27	916.00
584.53	882.00
584.78	881.00
585.04	878.00
585.30	921.00
585.55	888.00
585.81	882.00
586.07	938.00
586.32	934.00
586.58	884.00
586.83	882.00
587.09	913.00
587.35	912.00
587.60	871.00
587.86	885.00
588.12	875.00
588.37	924.00
588.63	887.00
588.89	884.00
589.14	908.00
589.40	932.00
589.66	876.00
589.91	891.00
590.17	914.00
590.43	864.00
590.68	834.00
590.94	876.00
591.19	916.00
591.45	887.00
591.71	863.00
591.96	892.00
592.22	923.00
592.48	930.00
592.73	868.00
592.99	877.00
593.25	891.00
593.50	914.00
593.76	855.00
594.01	876.00
594.27	920.00
594.53	901.00
594.78	884.00
595.04	877.00
595.30	897.00
595.55	904.00
595.81	847.00
596.06	889.00
596.32	934.00
596.58	906.00
596.83	872.00
597.09	893.00
597.35	914.00
597.60	880.00
597.86	856.00
598.11	889.00
598.37	919.00
598.63	905.00
598.88	873.00
599.14	888.00
599.39	920.00
599.65	891.00
599.91	827.00
600.16	870.00
600.42	908.00
600.67	926.00
600.93	867.00
601.19	913.00
601.44	973.00
601.70	929.00
601.95	870.00
602.21	882.00
602.47	902.00
602.72	901.00
602.98	859.00
603.23	889.00
603.49	916.00
603.75	918.00
604.00	878.00
604.26	893.00
604.51	892.00
604.77	913.00
605.03	860.00
605.28	876.00
605.54	925.00
605.79	943.00
606.05	864.00
606.31	873.00
606.56	908.00
606.82	927.00
607.07	890.00
607.33	907.00
607.59	916.00
607.84	896.00
608.10	854.00
608.35	878.00
608.61	911.00
608.86	917.00
609.12	886.00
609.38	916.00
609.63	942.00
609.89	921.00
610.14	854.00
610.40	884.00
610.65	902.00
610.91	906.00
611.17	864.00
611.42	887.00
611.68	916.00
611.93	931.00
612.19	906.00
612.44	894.00
612.70	916.00
612.96	875.00
613.21	864.00
613.47	861.00
613.72	884.00
613.98	920.00
614.23	893.00
614.49	897.00
614.75	913.00
615.00	903.00
615.26	874.00
615.51	876.00
615.77	905.00
616.02	914.00
616.28	884.00
616.53	899.00
616.79	897.00
617.05	897.00
617.30	879.00
617.56	880.00
617.81	937.00
618.07	914.00
618.32	896.00
618.58	904.00
618.83	920.00
619.09	923.00
619.34	880.00
619.60	882.00
619.86	922.00
620.11	946.00
620.37	896.00
620.62	910.00
620.88	926.00
621.13	919.00
621.39	919.00
621.64	938.00
621.90	947.00
622.15	940.00
622.41	914.00
622.66	937.00
622.92	973.00
623.18	964.00
623.43	926.00
623.69	944.00
623.94	969.00
624.20	979.00
624.45	954.00
624.71	961.00
624.96	965.00
625.22	1005.00
625.47	980.00
625.73	994.00
625.98	1022.00
626.24	1014.00
626.49	1001.00
626.75	1005.00
627.00	1073.00
627.26	1058.00
627.51	1033.00
627.77	1064.00
628.02	1064.00
628.28	1088.00
628.53	1059.00
628.79	1098.00
629.05	1137.00
629.30	1107.00
629.56	1096.00
629.81	1169.00
630.07	1201.00
630.32	1277.00
630.58	1270.00
630.83	1258.00
631.09	1299.00
631.34	1330.00
631.60	1301.00
631.85	1321.00
632.11	1406.00
632.36	1482.00
632.62	1578.00
632.87	1673.00
633.13	1674.00
633.38	1644.00
633.64	1684.00
633.89	1825.00
634.15	1974.00
634.40	2113.00
634.66	2185.00
634.91	2300.00
635.17	2334.00
635.42	2486.00
635.68	2432.00
635.93	2338.00
636.18	2313.00
636.44	2407.00
636.69	2233.00
636.95	2191.00
637.20	2284.00
637.46	2212.00
637.71	2045.00
637.97	1977.00
638.22	1929.00
638.48	1751.00
638.73	1618.00
638.99	1589.00
639.24	1626.00
639.50	1569.00
639.75	1389.00
640.01	1307.00
640.26	1312.00
640.52	1320.00
640.77	1217.00
641.03	1172.00
641.28	1190.00
641.54	1165.00
641.79	1142.00
642.04	1155.00
642.30	1130.00
642.55	1116.00
642.81	1056.00
643.06	1027.00
643.32	1065.00
643.57	1078.00
643.83	1004.00
644.08	960.00
644.34	958.00
644.59	991.00
644.85	969.00
645.10	970.00
645.35	968.00
645.61	960.00
645.86	922.00
646.12	929.00
646.37	977.00
646.63	990.00
646.88	901.00
647.14	909.00
647.39	942.00
647.65	986.00
647.90	921.00
648.15	932.00
648.41	942.00
648.66	941.00
648.92	884.00
649.17	901.00
649.43	898.00
649.68	919.00
649.94	911.00
650.19	907.00
650.44	927.00
650.70	913.00
650.95	876.00
651.21	909.00
651.46	967.00
651.72	939.00
651.97	899.00
652.23	887.00
652.48	915.00
652.73	917.00
652.99	881.00
653.24	911.00
653.50	899.00
653.75	889.00
654.01	877.00
654.26	903.00
654.51	900.00
654.77	932.00
655.02	901.00
655.28	878.00
655.53	877.00
655.79	894.00
656.04	879.00
656.29	898.00
656.55	904.00
656.80	910.00
657.06	849.00
657.31	855.00
657.56	894.00
657.82	878.00
658.07	871.00
658.33	900.00
658.58	906.00
658.84	945.00
659.09	891.00
659.34	904.00
659.60	900.00
659.85	889.00
660.11	868.00
660.36	882.00
660.61	893.00
660.87	869.00
661.12	852.00
661.38	877.00
661.63	888.00
661.88	905.00
662.14	899.00
662.39	901.00
662.65	930.00
662.90	958.00
663.15	882.00
663.41	885.00
663.66	922.00
663.92	925.00
664.17	865.00
664.42	875.00
664.68	909.00
664.93	897.00
665.19	867.00
665.44	884.00
665.69	874.00
665.95	887.00
666.20	852.00
666.45	892.00
666.71	911.00
666.96	923.00
667.22	864.00
667.47	872.00
667.72	874.00
667.98	892.00
668.23	856.00
668.49	897.00
668.74	918.00
668.99	903.00
669.25	853.00
669.50	873.00
669.75	879.00
670.01	904.00
670.26	853.00
670.52	881.00
670.77	899.00
671.02	891.00
671.28	857.00
671.53	892.00
671.78	921.00
672.04	913.00
672.29	877.00
672.54	863.00
672.80	882.00
673.05	889.00
673.31	856.00
673.56	915.00
673.81	929.00
674.07	909.00
674.32	897.00
674.57	886.00
674.83	883.00
675.08	917.00
675.33	873.00
675.59	885.00
675.84	918.00
676.09	890.00
676.35	883.00
676.60	899.00
676.86	893.00
677.11	929.00
677.36	896.00
677.62	887.00
677.87	928.00
678.12	935.00
678.38	862.00
678.63	871.00
678.88	920.00
679.14	924.00
679.39	849.00
679.64	896.00
679.90	883.00
680.15	922.00
680.40	910.00
680.66	883.00
680.91	900.00
681.16	912.00
681.42	879.00
681.67	870.00
681.92	896.00
682.18	932.00
682.43	875.00
682.68	869.00
682.94	884.00
683.19	874.00
683.44	868.00
683.70	889.00
683.95	903.00
684.20	906.00
684.46	887.00
684.71	888.00
684.96	892.00
685.22	922.00
685.47	890.00
685.72	904.00
685.98	914.00
686.23	868.00
686.48	870.00
686.74	907.00
686.99	921.00
687.24	895.00
687.50	866.00
687.75	893.00
688.00	899.00
688.25	913.00
688.51	885.00
688.76	904.00
689.01	887.00
689.27	879.00
689.52	848.00
689.77	884.00
690.03	875.00
690.28	876.00
690.53	865.00
690.79	890.00
691.04	899.00
691.29	924.00
691.54	859.00
691.80	889.00
692.05	898.00
692.30	914.00
692.56	876.00
692.81	893.00
693.06	881.00
693.32	872.00
693.57	879.00
693.82	904.00
694.07	923.00
694.33	920.00
694.58	865.00
694.83	892.00
695.09	891.00
695.34	925.00
695.59	888.00
695.84	870.00
696.10	914.00
696.35	931.00
696.60	837.00
696.86	869.00
697.11	888.00
697.36	917.00
697.61	869.00
697.87	886.00
698.12	879.00
698.37	887.00
698.63	886.00
698.88	879.00
699.13	904.00
699.38	910.00
699.64	860.00
699.89	885.00
700.14	881.00
700.39	874.00
700.65	891.00
700.90	908.00
701.15	895.00
701.40	918.00
701.66	877.00
701.91	878.00
702.16	886.00
702.42	876.00
702.67	844.00
702.92	868.00
703.17	872.00
703.43	897.00
703.68	879.00
703.93	920.00
704.18	944.00
704.44	909.00
704.69	876.00
704.94	896.00
705.19	881.00
705.45	906.00
705.70	875.00
705.95	872.00
706.20	887.00
706.46	904.00
706.71	872.00
706.96	867.00
707.21	892.00
707.47	910.00
707.72	898.00
707.97	897.00
708.22	911.00
708.48	932.00
708.73	875.00
708.98	868.00
709.23	906.00
709.49	903.00
709.74	878.00
709.99	885.00
710.24	900.00
710.50	896.00
710.75	894.00
711.00	912.00
711.25	911.00
711.50	902.00
711.76	876.00
712.01	877.00
712.26	892.00
712.51	906.00
712.77	883.00
713.02	874.00
713.27	874.00
713.52	883.00
713.78	877.00
714.03	879.00
714.28	886.00
714.53	902.00
714.78	873.00
715.04	918.00
715.29	912.00
715.54	906.00
715.79	862.00
716.05	886.00
716.30	905.00
716.55	906.00
716.80	878.00
717.05	894.00
717.31	910.00
717.56	926.00
717.81	878.00
718.06	865.00
718.31	868.00
718.57	899.00
718.82	893.00
719.07	923.00
719.32	889.00
719.57	908.00
719.83	864.00
720.08	880.00
720.33	876.00
720.58	874.00
720.83	852.00
721.09	913.00
721.34	909.00
721.59	917.00
721.84	864.00
722.09	875.00
722.35	892.00
722.60	876.00
722.85	858.00
723.10	891.00
723.35	881.00
723.61	890.00
723.86	901.00
724.11	898.00
724.36	887.00
724.61	887.00
724.87	869.00
725.12	881.00
725.37	888.00
725.62	870.00
725.87	863.00
726.12	865.00
726.38	882.00
726.63	898.00
726.88	869.00
727.13	903.00
727.38	896.00
727.64	884.00
727.89	860.00
728.14	868.00
728.39	861.00
728.64	895.00
728.89	860.00
729.15	910.00
729.40	905.00
729.65	907.00
729.90	866.00
730.15	899.00
730.40	912.00
730.66	913.00
730.91	871.00
731.16	870.00
731.41	892.00
731.66	892.00
731.91	882.00
732.17	905.00
732.42	907.00
732.67	883.00
732.92	854.00
733.17	890.00
733.42	912.00
733.68	905.00
733.93	865.00
734.18	881.00
734.43	854.00
734.68	886.00
734.93	868.00
735.18	902.00
735.44	905.00
735.69	907.00
735.94	844.00
736.19	890.00
736.44	890.00
736.69	936.00
736.95	874.00
737.20	896.00
737.45	900.00
737.70	904.00
737.95	884.00
738.20	902.00
738.45	921.00
738.70	912.00
738.96	869.00
739.21	894.00
739.46	901.00
739.71	923.00
739.96	890.00
740.21	907.00
740.46	962.00
740.72	936.00
740.97	880.00
741.22	914.00
741.47	875.00
741.72	905.00
741.97	870.00
742.22	888.00
742.47	905.00
742.73	889.00
742.98	854.00
743.23	865.00
743.48	873.00
743.73	912.00
743.98	887.00
744.23	894.00
744.48	903.00
744.74	878.00
744.99	870.00
745.24	898.00
745.49	907.00
745.74	921.00
745.99	882.00
746.24	893.00
746.49	886.00
746.74	884.00
747.00	869.00
747.25	884.00
747.50	871.00
747.75	877.00
748.00	844.00
748.25	859.00
748.50	886.00
748.75	919.00
749.00	897.00
749.26	909.00
749.51	890.00
749.76	930.00
750.01	867.00
750.26	876.00
750.51	902.00
750.76	889.00
751.01	855.00
751.26	889.00
751.51	899.00
751.77	918.00
752.02	872.00
752.27	870.00
752.52	884.00
752.77	895.00
753.02	885.00
753.27	901.00
753.52	881.00
753.77	871.00
754.02	874.00
754.27	879.00
754.52	869.00
754.78	905.00
755.03	873.00
755.28	883.00
755.53	891.00
755.78	901.00
756.03	862.00
756.28	888.00
756.53	900.00
756.78	904.00
757.03	885.00
757.28	896.00
757.53	907.00
757.79	876.00
758.04	850.00
758.29	897.00
758.54	906.00
758.79	916.00
759.04	854.00
759.29	865.00
759.54	861.00
759.79	866.00
760.04	876.00
760.29	897.00
760.54	881.00
760.79	894.00
761.04	871.00
761.29	874.00
761.55	865.00
761.80	884.00
762.05	849.00
762.30	892.00
762.55	886.00
762.80	907.00
763.05	888.00
763.30	902.00
763.55	937.00
763.80	914.00
764.05	838.00
764.30	866.00
764.55	908.00
764.80	899.00
765.05	845.00
765.30	893.00
765.55	902.00
765.80	894.00
766.05	844.00
766.30	876.00
766.56	884.00
766.81	906.00
767.06	902.00
767.31	897.00
767.56	893.00
767.81	886.00
768.06	878.00
768.31	873.00
768.56	878.00
768.81	925.00
769.06	865.00
769.31	880.00
769.56	878.00
769.81	907.00
770.06	850.00
770.31	874.00
770.56	888.00
770.81	864.00
771.06	865.00
771.31	896.00
771.56	888.00
771.81	916.00
772.06	854.00
772.31	908.00
772.56	896.00
772.81	916.00
773.06	867.00
773.31	902.00
773.56	880.00
773.81	864.00
774.06	876.00
774.31	909.00
774.56	902.00
774.81	920.00
775.06	902.00
775.31	931.00
775.56	886.00
775.81	872.00
776.06	865.00
776.31	878.00
776.56	887.00
776.82	904.00
777.07	850.00
777.32	867.00
777.57	886.00
777.82	926.00
778.07	888.00
778.32	874.00
778.57	900.00
778.82	928.00
779.07	875.00
779.32	895.00
779.57	861.00
779.82	875.00
780.07	871.00
780.32	875.00
780.56	876.00
780.81	925.00
781.06	849.00
781.31	873.00
781.56	935.00
781.81	918.00
782.06	870.00
782.31	910.00
782.56	900.00
782.81	921.00
783.06	888.00
783.31	893.00
783.56	902.00
783.81	907.00
784.06	872.00
784.31	867.00
784.56	861.00
784.81	934.00
785.06	901.00
785.31	898.00
785.56	876.00
785.81	874.00
786.06	839.00
786.31	883.00
786.56	877.00
786.81	898.00
787.06	893.00
787.31	889.00
787.56	879.00
787.81	869.00
788.06	867.00
788.31	904.00
788.56	878.00
788.81	911.00
789.06	859.00
789.31	881.00
789.56	874.00
789.81	886.00
790.06	862.00
790.31	911.00
790.56	885.00
790.80	869.00
791.05	853.00
791.30	872.00
791.55	874.00
791.80	895.00
792.05	867.00
792.30	873.00
792.55	875.00
792.80	881.00
793.05	871.00
793.30	878.00
793.55	899.00
793.80	921.00
794.05	870.00
794.30	887.00
794.55	892.00
794.80	909.00
795.05	863.00
795.30	872.00
795.54	870.00
795.79	899.00
796.04	862.00
796.29	886.00
796.54	882.00
796.79	909.00
797.04	859.00
797.29	892.00
797.54	899.00
797.79	905.00
798.04	880.00
798.29	866.00
798.54	857.00
798.79	879.00
799.04	847.00
799.29	887.00
799.53	894.00
799.78	882.00
800.03	875.00
800.28	856.00
800.53	876.00
800.78	941.00
801.03	878.00
801.28	869.00
801.53	892.00
801.78	913.00
802.03	887.00
802.28	897.00
802.52	894.00
802.77	910.00
803.02	877.00
803.27	891.00
803.52	863.00
803.77	904.00
804.02	899.00
804.27	907.00
804.52	915.00
804.77	916.00
805.02	878.00
805.27	916.00
805.51	889.00
805.76	913.00
806.01	882.00
806.26	875.00
806.51	866.00
806.76	902.00
807.01	877.00
807.26	892.00
807.51	910.00
807.76	882.00
808.00	860.00
808.25	890.00
808.50	911.00
808.75	877.00
809.00	860.00
809.25	881.00
809.50	888.00
809.75	906.00
810.00	867.00
810.24	857.00
810.49	853.00
810.74	894.00
810.99	880.00
811.24	889.00
811.49	881.00
811.74	896.00
811.99	839.00
812.24	882.00
812.48	868.00
812.73	868.00
812.98	841.00
813.23	859.00
813.48	886.00
813.73	872.00
813.98	825.00
814.23	862.00
814.47	862.00
814.72	857.00
814.97	849.00
815.22	905.00
815.47	878.00
815.72	877.00
815.97	847.00
816.22	859.00
816.46	882.00
816.71	916.00
816.96	876.00
817.21	891.00
817.46	866.00
817.71	891.00
817.96	877.00
818.20	870.00
818.45	862.00
818.70	894.00
818.95	872.00
819.20	887.00
819.45	875.00
819.70	877.00
819.94	857.00
820.19	883.00
820.44	897.00
820.69	915.00
820.94	877.00
821.19	893.00
821.44	934.00
821.68	950.00
821.93	898.00
822.18	896.00
822.43	911.00
822.68	921.00
822.93	857.00
823.17	877.00
823.42	889.00
823.67	888.00
823.92	856.00
824.17	881.00
824.42	886.00
824.67	894.00
824.91	860.00
825.16	872.00
825.41	872.00
825.66	891.00
825.91	841.00
826.16	866.00
826.40	879.00
826.65	900.00
826.90	858.00
827.15	872.00
827.40	871.00
827.65	916.00
827.89	827.00
828.14	874.00
828.39	897.00
828.64	894.00
828.89	841.00
829.13	868.00
829.38	864.00
829.63	886.00
829.88	865.00
830.13	854.00
830.38	866.00
830.62	881.00
830.87	859.00
831.12	900.00
831.37	899.00
831.62	911.00
831.86	874.00
832.11	878.00
832.36	851.00
832.61	897.00
832.86	888.00
833.10	900.00
833.35	897.00
833.60	923.00
833.85	876.00
834.10	899.00
834.35	920.00
834.59	918.00
834.84	876.00
835.09	909.00
835.34	866.00
835.59	889.00
835.83	882.00
836.08	893.00
836.33	912.00
836.58	913.00
836.83	863.00
837.07	896.00
837.32	901.00
837.57	876.00
837.82	874.00
838.06	898.00
838.31	912.00
838.56	926.00
838.81	870.00
839.06	886.00
839.30	880.00
839.55	893.00
839.80	862.00
840.05	875.00
840.30	903.00
840.54	913.00
840.79	875.00
841.04	896.00
841.29	896.00
841.53	908.00
841.78	878.00
842.03	858.00
842.28	848.00
842.53	862.00
842.77	884.00
843.02	889.00
843.27	875.00
843.52	905.00
843.76	881.00
844.01	888.00
844.26	877.00
844.51	904.00
844.75	878.00
845.00	863.00
845.25	882.00
845.50	887.00
845.75	864.00
845.99	898.00
846.24	894.00
846.49	909.00
846.74	862.00
846.98	855.00
847.23	860.00
847.48	901.00
847.73	877.00
847.97	874.00
848.22	919.00
848.47	892.00
848.72	858.00
848.96	867.00
849.21	901.00
849.46	872.00
849.71	852.00
849.95	878.00
850.20	865.00
850.45	892.00
850.70	837.00
850.94	877.00
851.19	874.00
851.44	887.00
851.69	853.00
851.93	892.00
852.18	897.00
852.43	909.00
852.68	874.00
852.92	902.00
853.17	926.00
853.42	908.00
853.66	893.00
853.91	913.00
854.16	872.00
854.41	927.00
854.65	873.00
854.90	880.00
855.15	879.00
855.40	888.00
855.64	868.00
855.89	861.00
856.14	881.00
856.39	885.00
856.63	866.00
856.88	878.00
857.13	877.00
857.37	865.00
857.62	840.00
857.87	846.00
858.12	880.00
858.36	912.00
858.61	848.00
858.86	880.00
859.10	899.00
859.35	906.00
859.60	869.00
859.85	864.00
860.09	848.00
860.34	889.00
860.59	872.00
860.83	889.00
861.08	874.00
861.33	912.00
861.58	873.00
861.82	870.00
862.07	889.00
862.32	904.00
862.56	865.00
862.81	874.00
863.06	895.00
863.30	879.00
863.55	866.00
863.80	875.00
864.05	893.00
864.29	887.00
864.54	884.00
864.79	900.00
865.03	903.00
865.28	916.00
865.53	873.00
865.77	851.00
866.02	888.00
866.27	913.00
866.51	878.00
866.76	859.00
867.01	880.00
867.26	903.00
867.50	844.00
867.75	862.00
868.00	904.00
868.24	915.00
868.49	863.00
868.74	883.00
868.98	866.00
869.23	889.00
869.48	896.00
869.72	881.00
869.97	877.00
870.22	929.00
870.46	883.00
870.71	896.00
870.96	889.00
871.20	893.00
871.45	844.00
871.70	866.00
871.94	920.00
872.19	918.00
872.44	900.00
872.68	877.00
872.93	874.00
873.18	896.00
873.42	859.00
873.67	889.00
873.92	908.00
874.16	886.00
874.41	870.00
874.66	898.00
874.90	904.00
875.15	915.00
875.40	897.00
875.64	895.00
875.89	892.00
876.14	904.00
876.38	873.00
876.63	877.00
876.88	906.00
877.12	908.00
877.37	870.00
877.62	897.00
877.86	883.00
878.11	899.00
878.36	856.00
878.60	878.00
878.85	884.00
879.09	904.00
879.34	871.00
879.59	902.00
879.83	922.00
880.08	925.00
880.33	885.00
880.57	898.00
880.82	900.00
881.07	894.00
881.31	875.00
881.56	870.00
881.80	863.00
882.05	869.00
882.30	840.00
882.54	881.00
882.79	914.00
883.04	942.00
883.28	881.00
883.53	869.00
883.77	896.00
884.02	905.00
884.27	837.00
884.51	854.00
884.76	879.00
885.01	916.00
885.25	862.00
885.50	896.00
885.74	896.00
885.99	922.00
886.24	866.00
886.48	875.00
886.73	911.00
886.98	917.00
887.22	877.00
887.47	878.00
887.71	892.00
887.96	891.00
888.21	880.00
888.45	885.00
888.70	873.00
888.94	917.00
889.19	855.00
889.44	876.00
889.68	894.00
889.93	912.00
890.17	889.00
890.42	876.00
890.67	912.00
890.91	977.00
891.16	876.00
891.40	853.00
891.65	882.00
891.90	914.00
892.14	851.00
892.39	885.00
892.63	888.00
892.88	907.00
893.13	887.00
893.37	872.00
893.62	878.00
893.86	900.00
894.11	864.00
894.36	882.00
894.60	867.00
894.85	879.00
895.09	872.00
895.34	901.00
895.59	875.00
895.83	864.00
896.08	843.00
896.32	844.00
896.57	864.00
896.81	897.00
897.06	876.00
897.31	887.00
897.55	898.00
897.80	898.00
898.04	844.00
898.29	854.00
898.53	876.00
898.78	898.00
899.03	888.00
899.27	872.00
899.52	904.00
899.76	915.00
900.01	867.00
900.25	892.00
900.50	916.00
900.75	928.00
900.99	887.00
901.24	949.00
901.48	896.00
901.73	894.00
901.97	853.00
902.22	883.00
902.47	891.00
902.71	892.00
902.96	849.00
903.20	877.00
903.45	910.00
903.69	904.00
903.94	892.00
904.18	874.00
904.43	874.00
904.68	898.00
904.92	839.00
905.17	885.00
905.41	909.00
905.66	919.00
905.90	902.00
906.15	875.00
906.39	886.00
906.64	890.00
906.88	850.00
907.13	858.00
907.38	897.00
907.62	925.00
907.87	866.00
908.11	906.00
908.36	882.00
908.60	896.00
908.85	842.00
909.09	876.00
909.34	894.00
909.58	901.00
909.83	864.00
910.07	872.00
910.32	936.00
910.56	935.00
910.81	859.00
911.06	903.00
911.30	903.00
911.55	887.00
911.79	852.00
912.04	858.00
912.28	883.00
912.53	916.00
912.77	890.00
913.02	871.00
913.26	874.00
913.51	867.00
913.75	862.00
914.00	859.00
914.24	885.00
914.49	890.00
914.73	872.00
914.98	896.00
915.22	914.00
915.47	892.00
915.71	859.00
915.96	885.00
916.20	885.00
916.45	887.00
916.69	857.00
916.94	877.00
917.18	881.00
917.43	884.00
917.67	849.00
917.92	869.00
918.16	906.00
918.41	908.00
918.65	853.00
918.90	848.00
919.14	843.00
919.39	885.00
919.63	864.00
919.88	859.00
920.12	897.00
920.37	901.00
920.61	846.00
920.86	886.00
921.10	905.00
921.35	876.00
921.59	861.00
921.84	895.00
922.08	916.00
922.33	918.00
922.57	846.00
922.82	845.00
923.06	882.00
923.31	906.00
923.55	843.00
923.80	865.00
924.04	877.00
924.29	898.00
924.53	850.00
924.78	864.00
925.02	864.00
925.27	893.00
925.51	873.00
925.76	897.00
926.00	884.00
926.25	879.00
926.49	853.00
926.73	893.00
926.98	900.00
927.22	905.00
927.47	883.00
927.71	882.00
927.96	906.00
928.20	901.00
928.45	898.00
928.69	911.00
928.94	911.00
929.18	884.00
929.43	901.00
929.67	888.00
929.91	900.00
930.16	900.00
930.40	845.00
930.65	847.00
930.89	880.00
931.14	910.00
931.38	881.00
931.63	898.00
931.87	907.00
932.12	899.00
932.36	846.00
932.60	875.00
932.85	916.00
933.09	891.00
933.34	852.00
933.58	892.00
933.83	884.00
934.07	898.00
934.32	868.00
934.56	888.00
934.80	922.00
935.05	928.00
935.29	890.00
935.54	902.00
935.78	916.00
936.03	905.00
936.27	852.00
936.52	864.00
936.76	900.00
937.00	896.00
937.25	867.00
937.49	888.00
937.74	912.00
937.98	898.00
938.23	840.00
938.47	847.00
938.71	865.00
938.96	886.00
939.20	851.00
939.45	864.00
939.69	876.00
939.94	902.00
940.18	845.00
940.42	888.00
940.67	896.00
940.91	890.00
941.16	869.00
941.40	857.00
941.64	878.00
941.89	902.00
942.13	839.00
942.38	896.00
942.62	970.00
942.87	928.00
943.11	888.00
943.35	877.00
943.60	884.00
943.84	932.00
944.09	887.00
944.33	896.00
944.57	917.00
944.82	887.00
945.06	852.00
945.31	885.00
945.55	875.00
945.79	904.00
946.04	863.00
946.28	871.00
946.53	884.00
946.77	898.00
947.01	846.00
947.26	895.00
947.50	886.00
947.75	919.00
947.99	879.00
948.23	882.00
948.48	878.00
948.72	898.00
948.97	873.00
949.21	892.00
949.45	902.00
949.70	902.00
949.94	889.00
950.18	898.00
950.43	882.00
950.67	892.00
950.92	874.00
951.16	877.00
951.40	881.00
951.65	885.00
951.89	865.00
952.13	888.00
952.38	892.00
952.62	903.00
952.87	856.00
953.11	891.00
953.35	914.00
953.60	903.00
953.84	818.00
954.08	838.00
954.33	896.00
954.57	899.00
954.82	883.00
955.06	871.00
955.30	878.00
955.55	888.00
955.79	876.00
956.03	867.00
956.28	876.00
956.52	898.00
956.76	898.00
957.01	887.00
957.25	868.00
957.50	881.00
957.74	868.00
957.98	849.00
958.23	887.00
958.47	886.00
958.71	884.00
958.96	888.00
959.20	904.00
959.44	897.00
959.69	856.00
959.93	879.00
960.17	878.00
960.42	904.00
960.66	874.00
960.90	883.00
961.15	882.00
961.39	902.00
961.64	852.00
961.88	865.00
962.12	904.00
962.37	901.00
962.61	877.00
962.85	866.00
963.10	892.00
963.34	879.00
963.58	850.00
963.83	886.00
964.07	901.00
964.31	907.00
964.56	885.00
964.80	860.00
965.04	892.00
965.29	898.00
965.53	847.00
965.77	858.00
966.02	841.00
966.26	875.00
966.50	853.00
966.74	885.00
966.99	914.00
967.23	890.00
967.47	866.00
967.72	874.00
967.96	876.00
968.20	896.00
968.45	869.00
968.69	880.00
968.93	878.00
969.18	901.00
969.42	880.00
969.66	883.00
969.91	882.00
970.15	911.00
970.39	851.00
970.64	869.00
970.88	889.00
971.12	897.00
971.36	879.00
971.61	852.00
971.85	877.00
972.09	877.00
972.34	868.00
972.58	878.00
972.82	880.00
973.07	911.00
973.31	857.00
973.55	894.00
973.79	903.00
974.04	927.00
974.28	884.00
974.52	881.00
974.77	881.00
975.01	915.00
975.25	866.00
975.50	886.00
975.74	895.00
975.98	909.00
976.22	876.00
976.47	868.00
976.71	879.00
976.95	903.00
977.20	876.00
977.44	884.00
977.68	895.00
977.92	899.00
978.17	860.00
978.41	874.00
978.65	897.00
978.90	890.00
979.14	884.00
979.38	889.00
979.62	877.00
979.87	863.00
980.11	844.00
980.35	857.00
980.59	883.00
980.84	902.00
981.08	861.00
981.32	866.00
981.57	907.00
981.81	902.00
982.05	876.00
982.29	873.00
982.54	873.00
982.78	900.00
983.02	863.00
983.26	878.00
983.51	926.00
983.75	921.00
983.99	857.00
984.23	893.00
984.48	882.00
984.72	915.00
984.96	854.00
985.20	864.00
985.45	941.00
985.69	907.00
985.93	871.00
986.17	886.00
986.42	898.00
986.66	890.00
986.90	842.00
987.14	870.00
987.39	894.00
987.63	866.00
987.87	841.00
988.11	858.00
988.36	890.00
988.60	898.00
988.84	889.00
989.08	856.00
989.33	897.00
989.57	898.00
989.81	837.00
990.05	852.00
990.30	862.00
990.54	857.00
990.78	846.00
991.02	857.00
991.27	890.00
991.51	897.00
991.75	874.00
991.99	892.00
992.23	881.00
992.48	855.00
992.72	838.00
992.96	856.00
993.20	884.00
993.45	890.00
993.69	884.00
993.93	863.00
994.17	875.00
994.41	896.00
994.66	846.00
994.90	871.00
995.14	908.00
995.38	881.00
995.63	848.00
995.87	870.00
996.11	920.00
996.35	899.00
996.59	836.00
996.84	853.00
997.08	900.00
997.32	882.00
997.56	870.00
997.80	856.00
998.05	860.00
998.29	859.00
998.53	853.00
998.77	883.00
999.01	899.00
999.26	910.00
999.50	863.00
999.74	843.00
999.98	880.00
1000.22	894.00
1000.47	840.00
1000.71	867.00
1000.95	889.00
1001.19	897.00
1001.43	873.00
1001.68	865.00
1001.92	888.00
1002.16	885.00
1002.40	846.00
1002.64	875.00
1002.89	883.00
1003.13	901.00
1003.37	876.00
1003.61	860.00
1003.85	869.00
1004.10	870.00
1004.34	853.00
1004.58	865.00
1004.82	902.00
1005.06	892.00
1005.30	865.00
1005.55	864.00
1005.79	889.00
1006.03	881.00
1006.27	866.00
1006.51	865.00
1006.76	889.00
1007.00	897.00
1007.24	868.00
1007.48	864.00
1007.72	908.00
1007.96	898.00
1008.21	868.00
1008.45	879.00
1008.69	897.00
1008.93	912.00
1009.17	893.00
1009.41	905.00
1009.66	925.00
1009.90	902.00
1010.14	859.00
1010.38	879.00
1010.62	895.00
1010.86	923.00
1011.10	866.00
1011.35	862.00
1011.59	892.00
1011.83	875.00
1012.07	839.00
1012.31	862.00
1012.55	877.00
1012.80	882.00
1013.04	877.00
1013.28	871.00
1013.52	880.00
1013.76	899.00
1014.00	852.00
1014.24	874.00
1014.49	909.00
1014.73	946.00
1014.97	904.00
1015.21	892.00
1015.45	922.00
1015.69	890.00
1015.93	866.00
1016.18	878.00
1016.42	912.00
1016.66	897.00
1016.90	855.00
1017.14	824.00
1017.38	871.00
1017.62	886.00
1017.87	876.00
1018.11	870.00
1018.35	891.00
1018.59	892.00
1018.83	856.00
1019.07	883.00
1019.31	912.00
1019.55	910.00
1019.80	880.00
1020.04	871.00
1020.28	864.00
1020.52	901.00
1020.76	849.00
1021.00	850.00
1021.24	884.00
1021.48	865.00
1021.73	862.00
1021.97	888.00
1022.21	884.00
1022.45	912.00
1022.69	881.00
1022.93	872.00
1023.17	896.00
1023.41	938.00
1023.65	889.00
1023.90	910.00
1024.14	914.00
1024.38	881.00
1024.62	839.00
1024.86	862.00
1025.10	903.00
1025.34	889.00
1025.58	849.00
1025.82	870.00
1026.07	897.00
1026.31	900.00
1026.55	855.00
1026.79	856.00
1027.03	873.00
1027.27	902.00
1027.51	849.00
1027.75	832.00
1027.99	864.00
1028.23	910.00
1028.47	887.00
1028.72	850.00
1028.96	886.00
1029.20	907.00
1029.44	900.00
1029.68	881.00
1029.92	876.00
1030.16	900.00
1030.40	848.00
1030.64	862.00
1030.88	882.00
1031.12	858.00
1031.37	830.00
1031.61	874.00
1031.85	910.00
1032.09	920.00
1032.33	873.00
1032.57	908.00
1032.81	880.00
1033.05	913.00
1033.29	876.00
1033.53	868.00
1033.77	920.00
1034.01	919.00
1034.25	892.00
1034.50	887.00
1034.74	893.00
1034.98	906.00
1035.22	886.00
1035.46	892.00
1035.70	912.00
1035.94	911.00
1036.18	877.00
1036.42	873.00
1036.66	869.00
1036.90	869.00
1037.14	839.00
1037.38	877.00
1037.62	912.00
1037.86	892.00
1038.10	874.00
1038.35	874.00
1038.59	908.00
1038.83	920.00
1039.07	893.00
1039.31	888.00
1039.55	855.00
1039.79	882.00
1040.03	845.00
1040.27	851.00
1040.51	907.00
1040.75	918.00
1040.99	879.00
1041.23	898.00
1041.47	887.00
1041.71	904.00
1041.95	860.00
1042.19	878.00
1042.43	920.00
1042.67	915.00
1042.91	882.00
1043.15	884.00
1043.39	926.00
1043.64	897.00
1043.88	873.00
1044.12	887.00
1044.36	946.00
1044.60	926.00
1044.84	885.00
1045.08	886.00
1045.32	887.00
1045.56	912.00
1045.80	884.00
1046.04	886.00
1046.28	922.00
1046.52	914.00
1046.76	844.00
1047.00	866.00
1047.24	907.00
1047.48	889.00
1047.72	871.00
1047.96	874.00
1048.20	903.00
1048.44	896.00
1048.68	873.00
1048.92	909.00
1049.16	892.00
1049.40	918.00
1049.64	883.00
1049.88	888.00
1050.12	914.00
1050.36	912.00
1050.60	862.00
1050.84	863.00
1051.08	891.00
1051.32	888.00
1051.56	874.00
1051.80	872.00
1052.04	876.00
1052.28	904.00
1052.52	865.00
1052.76	857.00
1053.00	878.00
1053.24	892.00
1053.48	830.00
1053.72	868.00
1053.96	895.00
1054.20	909.00
1054.44	869.00
1054.68	881.00
1054.92	900.00
1055.16	869.00
1055.40	880.00
1055.64	899.00
1055.88	925.00
1056.12	931.00
1056.36	846.00
1056.60	858.00
1056.84	909.00
1057.08	902.00
1057.32	878.00
1057.56	854.00
1057.80	877.00
1058.04	907.00
1058.28	857.00
1058.52	880.00
1058.76	903.00
1059.00	907.00
1059.24	840.00
1059.48	859.00
1059.72	903.00
1059.96	896.00
1060.20	886.00
1060.44	890.00
1060.68	903.00
1060.92	900.00
1061.16	843.00
1061.40	872.00
1061.64	888.00
1061.88	878.00
1062.11	863.00
1062.35	868.00
1062.59	879.00
1062.83	900.00
1063.07	864.00
1063.31	853.00
1063.55	869.00
1063.79	909.00
1064.03	869.00
1064.27	870.00
1064.51	908.00
1064.75	905.00
1064.99	880.00
1065.23	884.00
1065.47	890.00
1065.71	909.00
1065.95	869.00
1066.19	868.00
1066.43	907.00
1066.67	908.00
1066.91	865.00
1067.15	877.00
1067.38	888.00
1067.62	913.00
1067.86	860.00
1068.10	880.00
1068.34	942.00
1068.58	949.00
1068.82	888.00
1069.06	840.00
1069.30	891.00
1069.54	920.00
1069.78	897.00
1070.02	873.00
1070.26	921.00
1070.50	925.00
1070.74	883.00
1070.98	911.00
1071.21	896.00
1071.45	900.00
1071.69	858.00
1071.93	868.00
1072.17	890.00
1072.41	907.00
1072.65	888.00
1072.89	893.00
1073.13	878.00
1073.37	882.00
1073.61	877.00
1073.85	891.00
1074.09	870.00
1074.32	875.00
1074.56	862.00
1074.80	942.00
1075.04	1158.00
1075.28	1001.00
1075.52	891.00
1075.76	897.00
1076.00	905.00
1076.24	908.00
1076.48	883.00
1076.72	871.00
1076.96	918.00
1077.19	900.00
1077.43	860.00
1077.67	886.00
1077.91	890.00
1078.15	873.00
1078.39	883.00
1078.63	889.00
1078.87	901.00
1079.11	885.00
1079.35	866.00
1079.58	871.00
1079.82	883.00
1080.06	874.00
1080.30	842.00
1080.54	890.00
1080.78	907.00
1081.02	884.00
1081.26	862.00
1081.50	885.00
1081.74	899.00
1081.97	910.00
1082.21	870.00
1082.45	893.00
1082.69	878.00
1082.93	860.00
1083.17	886.00
1083.41	864.00
1083.65	925.00
1083.88	922.00
1084.12	876.00
1084.36	882.00
1084.60	883.00
1084.84	897.00
1085.08	840.00
1085.32	868.00
1085.56	900.00
1085.80	902.00
1086.03	866.00
1086.27	846.00
1086.51	881.00
1086.75	911.00
1086.99	863.00
1087.23	844.00
1087.47	871.00
1087.70	897.00
1087.94	881.00
1088.18	910.00
1088.42	940.00
1088.66	892.00
1088.90	851.00
1089.14	871.00
1089.38	882.00
1089.61	901.00
1089.85	878.00
1090.09	860.00
1090.33	921.00
1090.57	923.00
1090.81	845.00
1091.05	869.00
1091.28	903.00
1091.52	915.00
1091.76	859.00
1092.00	894.00
1092.24	914.00
1092.48	934.00
1092.71	857.00
1092.95	889.00
1093.19	904.00
1093.43	892.00
1093.67	869.00
1093.91	901.00
1094.15	889.00
1094.38	901.00
1094.62	859.00
1094.86	869.00
1095.10	863.00
1095.34	890.00
1095.58	865.00
1095.81	871.00
1096.05	910.00
1096.29	911.00
1096.53	857.00
1096.77	890.00
1097.01	877.00
1097.24	901.00
1097.48	857.00
1097.72	876.00
1097.96	898.00
1098.20	898.00
1098.44	858.00
1098.67	842.00
1098.91	887.00
1099.15	889.00
1099.39	868.00
1099.63	882.00
1099.86	902.00
1100.10	893.00
1100.34	876.00
1100.58	861.00
1100.82	876.00
1101.06	877.00
1101.29	845.00
1101.53	880.00
1101.77	898.00
1102.01	866.00
1102.25	856.00
1102.48	904.00
1102.72	933.00
1102.96	898.00
1103.20	844.00
1103.44	872.00
1103.67	883.00
1103.91	906.00
1104.15	864.00
1104.39	880.00
1104.63	885.00
1104.86	846.00
1105.10	841.00
1105.34	880.00
1105.58	882.00
1105.82	888.00
1106.05	876.00
1106.29	908.00
1106.53	899.00
1106.77	909.00
1107.01	872.00
1107.24	903.00
1107.48	960.00
1107.72	913.00
1107.96	850.00
1108.20	881.00
1108.43	893.00
1108.67	888.00
1108.91	863.00
1109.15	871.00
1109.39	886.00
1109.62	883.00
1109.86	843.00
1110.10	870.00
1110.34	941.00
1110.57	966.00
1110.81	891.00
1111.05	884.00
1111.29	928.00
1111.53	947.00
1111.76	883.00
1112.00	920.00
1112.24	924.00
1112.48	910.00
1112.71	850.00
1112.95	870.00
1113.19	917.00
1113.43	890.00
1113.66	843.00
1113.90	877.00
1114.14	898.00
1114.38	908.00
1114.62	863.00
1114.85	893.00
1115.09	902.00
1115.33	943.00
1115.57	875.00
1115.80	855.00
1116.04	884.00
1116.28	912.00
1116.52	867.00
1116.75	864.00
1116.99	903.00
1117.23	920.00
1117.47	880.00
1117.70	901.00
1117.94	949.00
1118.18	877.00
1118.42	871.00
1118.65	896.00
1118.89	918.00
1119.13	907.00
1119.37	855.00
1119.60	880.00
1119.84	914.00
>>>>>End Processed Spectral Data<<<<<
