SpectraSuite Data File
++++++++++++++++++++++++++++++++++++
Date: Fri Dec 06 16:10:59 CET 2024
User: student
Dark Spectrum Present: No
Reference Spectrum Present: No
Number of Sampled Component Spectra: 1
Spectrometers: HR4C155
Integration Time (usec): 100000 (HR4C155)
Spectra Averaged: 1 (HR4C155)
Boxcar Smoothing: 0 (HR4C155)
Correct for Electrical Dark: No (HR4C155)
Strobe/Lamp Enabled: No (HR4C155)
Correct for Detector Non-linearity: No (HR4C155)
Correct for Stray Light: No (HR4C155)
Number of Pixels in Processed Spectrum: 3648
>>>>>Begin Processed Spectral Data<<<<<
195.39	677.00
195.66	677.00
195.93	677.00
196.20	679.00
196.46	708.00
196.73	825.00
197.00	846.00
197.27	856.00
197.54	869.00
197.81	869.00
198.08	864.00
198.35	899.00
198.61	931.00
198.88	877.00
199.15	852.00
199.42	874.00
199.69	901.00
199.96	869.00
200.23	889.00
200.49	875.00
200.76	908.00
201.03	899.00
201.30	899.00
201.57	933.00
201.84	946.00
202.11	895.00
202.38	919.00
202.64	929.00
202.91	934.00
203.18	875.00
203.45	926.00
203.72	1008.00
203.99	934.00
204.25	919.00
204.52	925.00
204.79	957.00
205.06	948.00
205.33	892.00
205.60	902.00
205.87	951.00
206.13	944.00
206.40	916.00
206.67	900.00
206.94	936.00
207.21	935.00
207.48	915.00
207.75	897.00
208.01	943.00
208.28	944.00
208.55	890.00
208.82	915.00
209.09	923.00
209.36	964.00
209.62	930.00
209.89	925.00
210.16	946.00
210.43	983.00
210.70	899.00
210.97	907.00
211.23	939.00
211.50	968.00
211.77	924.00
212.04	920.00
212.31	924.00
212.58	965.00
212.84	909.00
213.11	909.00
213.38	888.00
213.65	935.00
213.92	909.00
214.18	919.00
214.45	945.00
214.72	946.00
214.99	892.00
215.26	907.00
215.53	896.00
215.79	945.00
216.06	941.00
216.33	935.00
216.60	930.00
216.87	947.00
217.13	862.00
217.40	897.00
217.67	934.00
217.94	972.00
218.21	899.00
218.48	932.00
218.74	987.00
219.01	945.00
219.28	869.00
219.55	887.00
219.82	927.00
220.08	935.00
220.35	902.00
220.62	911.00
220.89	949.00
221.16	972.00
221.42	924.00
221.69	924.00
221.96	946.00
222.23	961.00
222.50	934.00
222.76	949.00
223.03	942.00
223.30	924.00
223.57	898.00
223.84	897.00
224.10	909.00
224.37	927.00
224.64	887.00
224.91	898.00
225.18	941.00
225.44	947.00
225.71	902.00
225.98	935.00
226.25	951.00
226.51	964.00
226.78	906.00
227.05	901.00
227.32	923.00
227.59	942.00
227.85	936.00
228.12	918.00
228.39	967.00
228.66	969.00
228.92	963.00
229.19	940.00
229.46	934.00
229.73	926.00
230.00	898.00
230.26	918.00
230.53	942.00
230.80	921.00
231.07	885.00
231.33	892.00
231.60	928.00
231.87	939.00
232.14	918.00
232.41	940.00
232.67	930.00
232.94	943.00
233.21	897.00
233.48	924.00
233.74	941.00
234.01	920.00
234.28	899.00
234.55	909.00
234.81	915.00
235.08	963.00
235.35	916.00
235.62	906.00
235.88	915.00
236.15	943.00
236.42	938.00
236.69	923.00
236.95	949.00
237.22	927.00
237.49	904.00
237.76	913.00
238.02	961.00
238.29	970.00
238.56	906.00
238.83	901.00
239.09	913.00
239.36	958.00
239.63	919.00
239.90	925.00
240.16	968.00
240.43	985.00
240.70	904.00
240.97	921.00
241.23	931.00
241.50	938.00
241.77	903.00
242.04	913.00
242.30	907.00
242.57	918.00
242.84	885.00
243.11	894.00
243.37	878.00
243.64	950.00
243.91	911.00
244.18	911.00
244.44	897.00
244.71	906.00
244.98	902.00
245.24	905.00
245.51	920.00
245.78	972.00
246.05	905.00
246.31	898.00
246.58	949.00
246.85	908.00
247.12	894.00
247.38	928.00
247.65	922.00
247.92	929.00
248.18	896.00
248.45	906.00
248.72	926.00
248.99	926.00
249.25	891.00
249.52	881.00
249.79	934.00
250.05	946.00
250.32	905.00
250.59	909.00
250.86	913.00
251.12	910.00
251.39	882.00
251.66	926.00
251.92	955.00
252.19	961.00
252.46	897.00
252.73	939.00
252.99	953.00
253.26	961.00
253.53	897.00
253.79	909.00
254.06	922.00
254.33	906.00
254.60	881.00
254.86	906.00
255.13	946.00
255.40	969.00
255.66	925.00
255.93	938.00
256.20	962.00
256.46	948.00
256.73	904.00
257.00	916.00
257.26	937.00
257.53	943.00
257.80	935.00
258.07	932.00
258.33	979.00
258.60	951.00
258.87	906.00
259.13	921.00
259.40	914.00
259.67	956.00
259.93	924.00
260.20	926.00
260.47	925.00
260.73	893.00
261.00	885.00
261.27	899.00
261.53	935.00
261.80	936.00
262.07	873.00
262.34	896.00
262.60	875.00
262.87	918.00
263.14	885.00
263.40	932.00
263.67	905.00
263.94	911.00
264.20	911.00
264.47	877.00
264.74	894.00
265.00	905.00
265.27	873.00
265.54	909.00
265.80	955.00
266.07	955.00
266.34	903.00
266.60	917.00
266.87	959.00
267.14	947.00
267.40	890.00
267.67	893.00
267.94	948.00
268.20	929.00
268.47	899.00
268.74	912.00
269.00	942.00
269.27	907.00
269.54	848.00
269.80	880.00
270.07	934.00
270.33	888.00
270.60	885.00
270.87	924.00
271.13	919.00
271.40	927.00
271.67	871.00
271.93	863.00
272.20	921.00
272.47	921.00
272.73	861.00
273.00	886.00
273.27	915.00
273.53	956.00
273.80	916.00
274.07	899.00
274.33	897.00
274.60	939.00
274.86	907.00
275.13	899.00
275.40	888.00
275.66	956.00
275.93	903.00
276.20	892.00
276.46	903.00
276.73	906.00
277.00	893.00
277.26	909.00
277.53	941.00
277.79	917.00
278.06	879.00
278.33	936.00
278.59	940.00
278.86	902.00
279.13	899.00
279.39	914.00
279.66	962.00
279.93	956.00
280.19	879.00
280.46	899.00
280.72	908.00
280.99	934.00
281.26	890.00
281.52	871.00
281.79	918.00
282.05	915.00
282.32	898.00
282.59	913.00
282.85	942.00
283.12	939.00
283.39	905.00
283.65	907.00
283.92	918.00
284.18	947.00
284.45	898.00
284.72	906.00
284.98	917.00
285.25	921.00
285.51	924.00
285.78	935.00
286.05	917.00
286.31	916.00
286.58	878.00
286.84	890.00
287.11	916.00
287.38	934.00
287.64	924.00
287.91	902.00
288.17	948.00
288.44	931.00
288.71	886.00
288.97	911.00
289.24	940.00
289.50	926.00
289.77	923.00
290.04	885.00
290.30	904.00
290.57	952.00
290.83	881.00
291.10	891.00
291.37	906.00
291.63	905.00
291.90	926.00
292.16	928.00
292.43	932.00
292.70	913.00
292.96	855.00
293.23	884.00
293.49	905.00
293.76	929.00
294.02	889.00
294.29	886.00
294.56	935.00
294.82	936.00
295.09	883.00
295.35	896.00
295.62	954.00
295.89	945.00
296.15	890.00
296.42	873.00
296.68	902.00
296.95	909.00
297.21	894.00
297.48	889.00
297.75	907.00
298.01	930.00
298.28	911.00
298.54	936.00
298.81	937.00
299.07	942.00
299.34	876.00
299.61	893.00
299.87	916.00
300.14	909.00
300.40	918.00
300.67	917.00
300.93	948.00
301.20	970.00
301.46	899.00
301.73	913.00
302.00	949.00
302.26	923.00
302.53	916.00
302.79	914.00
303.06	929.00
303.32	956.00
303.59	891.00
303.85	890.00
304.12	901.00
304.39	937.00
304.65	896.00
304.92	896.00
305.18	949.00
305.45	945.00
305.71	906.00
305.98	932.00
306.24	914.00
306.51	901.00
306.77	894.00
307.04	926.00
307.31	956.00
307.57	960.00
307.84	890.00
308.10	908.00
308.37	904.00
308.63	915.00
308.90	906.00
309.16	916.00
309.43	939.00
309.69	920.00
309.96	910.00
310.22	904.00
310.49	913.00
310.76	930.00
311.02	870.00
311.29	899.00
311.55	924.00
311.82	918.00
312.08	913.00
312.35	910.00
312.61	923.00
312.88	943.00
313.14	894.00
313.41	875.00
313.67	873.00
313.94	915.00
314.20	903.00
314.47	928.00
314.73	907.00
315.00	901.00
315.26	880.00
315.53	922.00
315.79	941.00
316.06	942.00
316.32	896.00
316.59	925.00
316.85	917.00
317.12	905.00
317.39	876.00
317.65	895.00
317.92	906.00
318.18	920.00
318.45	897.00
318.71	942.00
318.98	948.00
319.24	934.00
319.51	914.00
319.77	900.00
320.04	910.00
320.30	913.00
320.57	885.00
320.83	881.00
321.10	879.00
321.36	909.00
321.63	877.00
321.89	886.00
322.16	949.00
322.42	930.00
322.69	885.00
322.95	880.00
323.22	912.00
323.48	941.00
323.75	903.00
324.01	925.00
324.28	917.00
324.54	914.00
324.80	889.00
325.07	923.00
325.33	928.00
325.60	913.00
325.86	870.00
326.13	892.00
326.39	913.00
326.66	906.00
326.92	870.00
327.19	883.00
327.45	946.00
327.72	950.00
327.98	881.00
328.25	892.00
328.51	928.00
328.78	911.00
329.04	874.00
329.31	894.00
329.57	916.00
329.84	902.00
330.10	879.00
330.37	902.00
330.63	941.00
330.89	966.00
331.16	902.00
331.42	900.00
331.69	941.00
331.95	922.00
332.22	915.00
332.48	950.00
332.75	935.00
333.01	895.00
333.28	886.00
333.54	919.00
333.81	925.00
334.07	925.00
334.34	902.00
334.60	906.00
334.86	945.00
335.13	952.00
335.39	921.00
335.66	906.00
335.92	932.00
336.19	923.00
336.45	859.00
336.72	901.00
336.98	897.00
337.24	914.00
337.51	886.00
337.77	908.00
338.04	909.00
338.30	916.00
338.57	884.00
338.83	918.00
339.10	935.00
339.36	923.00
339.63	903.00
339.89	873.00
340.15	909.00
340.42	946.00
340.68	918.00
340.95	916.00
341.21	914.00
341.48	922.00
341.74	879.00
342.00	864.00
342.27	912.00
342.53	922.00
342.80	872.00
343.06	883.00
343.33	903.00
343.59	937.00
343.85	895.00
344.12	898.00
344.38	973.00
344.65	958.00
344.91	901.00
345.18	895.00
345.44	903.00
345.70	889.00
345.97	853.00
346.23	893.00
346.50	925.00
346.76	909.00
347.03	897.00
347.29	904.00
347.55	916.00
347.82	923.00
348.08	857.00
348.35	889.00
348.61	959.00
348.87	953.00
349.14	886.00
349.40	898.00
349.67	916.00
349.93	909.00
350.20	901.00
350.46	914.00
350.72	947.00
350.99	913.00
351.25	885.00
351.52	900.00
351.78	906.00
352.04	931.00
352.31	904.00
352.57	902.00
352.84	901.00
353.10	906.00
353.36	905.00
353.63	888.00
353.89	908.00
354.16	932.00
354.42	898.00
354.68	902.00
354.95	941.00
355.21	930.00
355.48	877.00
355.74	918.00
356.00	956.00
356.27	965.00
356.53	869.00
356.80	879.00
357.06	928.00
357.32	943.00
357.59	925.00
357.85	926.00
358.11	971.00
358.38	934.00
358.64	907.00
358.91	901.00
359.17	915.00
359.43	955.00
359.70	920.00
359.96	907.00
360.22	941.00
360.49	908.00
360.75	908.00
361.02	872.00
361.28	897.00
361.54	905.00
361.81	859.00
362.07	900.00
362.33	927.00
362.60	905.00
362.86	878.00
363.13	901.00
363.39	928.00
363.65	940.00
363.92	849.00
364.18	862.00
364.44	932.00
364.71	932.00
364.97	892.00
365.24	898.00
365.50	928.00
365.76	943.00
366.03	891.00
366.29	923.00
366.55	941.00
366.82	917.00
367.08	863.00
367.34	882.00
367.61	943.00
367.87	941.00
368.13	910.00
368.40	894.00
368.66	961.00
368.93	934.00
369.19	869.00
369.45	879.00
369.72	923.00
369.98	893.00
370.24	855.00
370.51	901.00
370.77	923.00
371.03	916.00
371.30	901.00
371.56	929.00
371.82	938.00
372.09	942.00
372.35	917.00
372.61	892.00
372.88	915.00
373.14	937.00
373.40	898.00
373.67	897.00
373.93	923.00
374.19	947.00
374.46	879.00
374.72	876.00
374.98	910.00
375.25	914.00
375.51	918.00
375.77	931.00
376.04	947.00
376.30	932.00
376.56	884.00
376.83	902.00
377.09	930.00
377.35	923.00
377.62	897.00
377.88	899.00
378.14	888.00
378.41	917.00
378.67	882.00
378.93	895.00
379.20	928.00
379.46	912.00
379.72	870.00
379.99	885.00
380.25	893.00
380.51	903.00
380.77	873.00
381.04	895.00
381.30	934.00
381.56	953.00
381.83	906.00
382.09	894.00
382.35	901.00
382.62	926.00
382.88	903.00
383.14	894.00
383.41	908.00
383.67	910.00
383.93	900.00
384.20	894.00
384.46	923.00
384.72	947.00
384.98	886.00
385.25	913.00
385.51	932.00
385.77	917.00
386.04	906.00
386.30	898.00
386.56	927.00
386.82	947.00
387.09	884.00
387.35	916.00
387.61	995.00
387.88	934.00
388.14	910.00
388.40	905.00
388.67	915.00
388.93	927.00
389.19	916.00
389.45	897.00
389.72	913.00
389.98	922.00
390.24	899.00
390.51	889.00
390.77	931.00
391.03	937.00
391.29	877.00
391.56	903.00
391.82	935.00
392.08	944.00
392.35	907.00
392.61	892.00
392.87	918.00
393.13	947.00
393.40	901.00
393.66	890.00
393.92	915.00
394.18	940.00
394.45	871.00
394.71	884.00
394.97	893.00
395.24	886.00
395.50	872.00
395.76	912.00
396.02	932.00
396.29	919.00
396.55	869.00
396.81	845.00
397.07	907.00
397.34	891.00
397.60	870.00
397.86	877.00
398.12	894.00
398.39	948.00
398.65	892.00
398.91	905.00
399.17	920.00
399.44	875.00
399.70	845.00
399.96	887.00
400.22	888.00
400.49	939.00
400.75	897.00
401.01	879.00
401.27	900.00
401.54	928.00
401.80	884.00
402.06	870.00
402.32	922.00
402.59	915.00
402.85	882.00
403.11	888.00
403.37	896.00
403.64	942.00
403.90	901.00
404.16	904.00
404.42	909.00
404.69	899.00
404.95	896.00
405.21	870.00
405.47	900.00
405.74	936.00
406.00	909.00
406.26	885.00
406.52	894.00
406.79	927.00
407.05	891.00
407.31	893.00
407.57	884.00
407.83	918.00
408.10	871.00
408.36	878.00
408.62	897.00
408.88	919.00
409.15	905.00
409.41	866.00
409.67	892.00
409.93	936.00
410.20	907.00
410.46	902.00
410.72	885.00
410.98	918.00
411.24	883.00
411.51	874.00
411.77	887.00
412.03	902.00
412.29	905.00
412.55	925.00
412.82	908.00
413.08	944.00
413.34	919.00
413.60	897.00
413.87	908.00
414.13	924.00
414.39	873.00
414.65	900.00
414.91	922.00
415.18	909.00
415.44	854.00
415.70	868.00
415.96	930.00
416.22	918.00
416.49	874.00
416.75	883.00
417.01	914.00
417.27	918.00
417.53	893.00
417.80	903.00
418.06	934.00
418.32	929.00
418.58	889.00
418.84	886.00
419.11	916.00
419.37	930.00
419.63	890.00
419.89	899.00
420.15	906.00
420.42	904.00
420.68	881.00
420.94	907.00
421.20	911.00
421.46	923.00
421.72	901.00
421.99	905.00
422.25	912.00
422.51	918.00
422.77	898.00
423.03	909.00
423.30	902.00
423.56	919.00
423.82	922.00
424.08	908.00
424.34	920.00
424.60	915.00
424.87	865.00
425.13	875.00
425.39	900.00
425.65	898.00
425.91	884.00
426.18	901.00
426.44	913.00
426.70	876.00
426.96	841.00
427.22	845.00
427.48	887.00
427.75	913.00
428.01	862.00
428.27	884.00
428.53	936.00
428.79	903.00
429.05	872.00
429.32	873.00
429.58	934.00
429.84	893.00
430.10	906.00
430.36	899.00
430.62	930.00
430.88	924.00
431.15	900.00
431.41	899.00
431.67	922.00
431.93	892.00
432.19	846.00
432.45	879.00
432.72	904.00
432.98	911.00
433.24	922.00
433.50	1009.00
433.76	901.00
434.02	900.00
434.28	863.00
434.55	886.00
434.81	913.00
435.07	932.00
435.33	860.00
435.59	874.00
435.85	903.00
436.11	910.00
436.38	871.00
436.64	887.00
436.90	921.00
437.16	898.00
437.42	878.00
437.68	894.00
437.94	926.00
438.21	915.00
438.47	908.00
438.73	904.00
438.99	911.00
439.25	911.00
439.51	867.00
439.77	885.00
440.03	891.00
440.30	932.00
440.56	891.00
440.82	927.00
441.08	937.00
441.34	930.00
441.60	881.00
441.86	899.00
442.12	923.00
442.39	901.00
442.65	861.00
442.91	867.00
443.17	883.00
443.43	919.00
443.69	902.00
443.95	887.00
444.21	892.00
444.47	914.00
444.74	880.00
445.00	898.00
445.26	893.00
445.52	910.00
445.78	877.00
446.04	894.00
446.30	948.00
446.56	937.00
446.82	884.00
447.09	893.00
447.35	914.00
447.61	914.00
447.87	882.00
448.13	890.00
448.39	947.00
448.65	931.00
448.91	886.00
449.17	885.00
449.43	903.00
449.70	913.00
449.96	872.00
450.22	877.00
450.48	895.00
450.74	942.00
451.00	900.00
451.26	887.00
451.52	893.00
451.78	896.00
452.04	886.00
452.31	922.00
452.57	929.00
452.83	891.00
453.09	882.00
453.35	875.00
453.61	895.00
453.87	901.00
454.13	914.00
454.39	911.00
454.65	966.00
454.91	955.00
455.17	870.00
455.44	888.00
455.70	918.00
455.96	917.00
456.22	890.00
456.48	886.00
456.74	900.00
457.00	872.00
457.26	835.00
457.52	876.00
457.78	909.00
458.04	918.00
458.30	874.00
458.56	902.00
458.82	887.00
459.09	880.00
459.35	845.00
459.61	858.00
459.87	907.00
460.13	921.00
460.39	887.00
460.65	894.00
460.91	944.00
461.17	902.00
461.43	856.00
461.69	864.00
461.95	904.00
462.21	887.00
462.47	895.00
462.73	917.00
462.99	940.00
463.26	913.00
463.52	870.00
463.78	872.00
464.04	891.00
464.30	914.00
464.56	886.00
464.82	893.00
465.08	953.00
465.34	944.00
465.60	906.00
465.86	899.00
466.12	899.00
466.38	875.00
466.64	861.00
466.90	876.00
467.16	908.00
467.42	913.00
467.68	863.00
467.94	887.00
468.20	936.00
468.46	910.00
468.72	888.00
468.98	906.00
469.25	929.00
469.51	904.00
469.77	897.00
470.03	887.00
470.29	899.00
470.55	896.00
470.81	872.00
471.07	884.00
471.33	917.00
471.59	929.00
471.85	880.00
472.11	903.00
472.37	934.00
472.63	907.00
472.89	891.00
473.15	877.00
473.41	899.00
473.67	889.00
473.93	842.00
474.19	856.00
474.45	884.00
474.71	913.00
474.97	891.00
475.23	878.00
475.49	890.00
475.75	892.00
476.01	890.00
476.27	908.00
476.53	930.00
476.79	918.00
477.05	886.00
477.31	895.00
477.57	927.00
477.83	905.00
478.09	846.00
478.35	892.00
478.61	919.00
478.87	890.00
479.13	870.00
479.39	898.00
479.65	921.00
479.91	922.00
480.17	882.00
480.43	897.00
480.69	901.00
480.95	912.00
481.21	878.00
481.47	884.00
481.73	909.00
481.99	899.00
482.25	878.00
482.51	863.00
482.77	907.00
483.03	894.00
483.29	897.00
483.55	886.00
483.81	928.00
484.07	912.00
484.33	872.00
484.59	899.00
484.85	928.00
485.11	929.00
485.37	897.00
485.63	888.00
485.89	885.00
486.15	898.00
486.41	863.00
486.67	904.00
486.93	923.00
487.19	894.00
487.45	874.00
487.71	884.00
487.97	941.00
488.23	923.00
488.49	869.00
488.75	872.00
489.01	925.00
489.27	943.00
489.53	884.00
489.79	868.00
490.05	892.00
490.31	930.00
490.57	897.00
490.83	941.00
491.08	908.00
491.34	887.00
491.60	861.00
491.86	901.00
492.12	956.00
492.38	936.00
492.64	882.00
492.90	868.00
493.16	909.00
493.42	869.00
493.68	855.00
493.94	882.00
494.20	867.00
494.46	900.00
494.72	886.00
494.98	879.00
495.24	886.00
495.50	913.00
495.76	895.00
496.02	899.00
496.28	914.00
496.54	931.00
496.80	892.00
497.05	868.00
497.31	904.00
497.57	910.00
497.83	870.00
498.09	906.00
498.35	924.00
498.61	905.00
498.87	876.00
499.13	876.00
499.39	901.00
499.65	884.00
499.91	876.00
500.17	868.00
500.43	961.00
500.69	982.00
500.95	887.00
501.20	915.00
501.46	925.00
501.72	941.00
501.98	929.00
502.24	919.00
502.50	929.00
502.76	894.00
503.02	876.00
503.28	885.00
503.54	946.00
503.80	949.00
504.06	922.00
504.32	923.00
504.58	916.00
504.83	904.00
505.09	879.00
505.35	887.00
505.61	873.00
505.87	894.00
506.13	881.00
506.39	868.00
506.65	920.00
506.91	957.00
507.17	891.00
507.43	881.00
507.68	898.00
507.94	944.00
508.20	885.00
508.46	883.00
508.72	932.00
508.98	932.00
509.24	862.00
509.50	890.00
509.76	873.00
510.02	895.00
510.28	860.00
510.53	878.00
510.79	908.00
511.05	890.00
511.31	862.00
511.57	878.00
511.83	919.00
512.09	932.00
512.35	881.00
512.61	888.00
512.87	916.00
513.12	930.00
513.38	866.00
513.64	893.00
513.90	923.00
514.16	937.00
514.42	893.00
514.68	883.00
514.94	924.00
515.20	924.00
515.45	878.00
515.71	879.00
515.97	887.00
516.23	912.00
516.49	871.00
516.75	888.00
517.01	908.00
517.27	882.00
517.53	873.00
517.78	884.00
518.04	900.00
518.30	890.00
518.56	861.00
518.82	916.00
519.08	952.00
519.34	908.00
519.60	874.00
519.85	896.00
520.11	906.00
520.37	901.00
520.63	874.00
520.89	917.00
521.15	924.00
521.41	917.00
521.66	883.00
521.92	878.00
522.18	914.00
522.44	907.00
522.70	877.00
522.96	859.00
523.22	908.00
523.48	905.00
523.73	892.00
523.99	883.00
524.25	943.00
524.51	915.00
524.77	872.00
525.03	881.00
525.29	912.00
525.54	931.00
525.80	892.00
526.06	893.00
526.32	899.00
526.58	913.00
526.84	855.00
527.09	885.00
527.35	885.00
527.61	888.00
527.87	880.00
528.13	908.00
528.39	898.00
528.65	897.00
528.90	859.00
529.16	870.00
529.42	885.00
529.68	898.00
529.94	864.00
530.20	878.00
530.45	871.00
530.71	900.00
530.97	876.00
531.23	884.00
531.49	909.00
531.75	895.00
532.00	882.00
532.26	867.00
532.52	908.00
532.78	897.00
533.04	853.00
533.30	871.00
533.55	891.00
533.81	899.00
534.07	858.00
534.33	878.00
534.59	916.00
534.85	926.00
535.10	871.00
535.36	874.00
535.62	913.00
535.88	900.00
536.14	859.00
536.39	871.00
536.65	930.00
536.91	930.00
537.17	863.00
537.43	887.00
537.69	926.00
537.94	905.00
538.20	875.00
538.46	889.00
538.72	906.00
538.98	909.00
539.23	854.00
539.49	861.00
539.75	921.00
540.01	905.00
540.27	887.00
540.52	933.00
540.78	919.00
541.04	918.00
541.30	861.00
541.56	845.00
541.81	932.00
542.07	993.00
542.33	893.00
542.59	898.00
542.85	915.00
543.10	887.00
543.36	874.00
543.62	904.00
543.88	879.00
544.14	907.00
544.39	878.00
544.65	887.00
544.91	936.00
545.17	897.00
545.43	874.00
545.68	887.00
545.94	902.00
546.20	928.00
546.46	889.00
546.71	883.00
546.97	904.00
547.23	919.00
547.49	870.00
547.75	878.00
548.00	915.00
548.26	912.00
548.52	866.00
548.78	871.00
549.03	896.00
549.29	894.00
549.55	868.00
549.81	900.00
550.07	926.00
550.32	923.00
550.58	866.00
550.84	897.00
551.10	918.00
551.35	903.00
551.61	881.00
551.87	906.00
552.13	905.00
552.39	885.00
552.64	852.00
552.90	878.00
553.16	902.00
553.42	894.00
553.67	846.00
553.93	853.00
554.19	921.00
554.45	924.00
554.70	894.00
554.96	872.00
555.22	903.00
555.48	915.00
555.73	877.00
555.99	889.00
556.25	914.00
556.51	907.00
556.76	882.00
557.02	896.00
557.28	917.00
557.54	887.00
557.79	870.00
558.05	902.00
558.31	905.00
558.57	909.00
558.82	866.00
559.08	856.00
559.34	886.00
559.60	912.00
559.85	886.00
560.11	881.00
560.37	880.00
560.63	884.00
560.88	862.00
561.14	869.00
561.40	906.00
561.66	884.00
561.91	880.00
562.17	900.00
562.43	908.00
562.68	933.00
562.94	909.00
563.20	917.00
563.46	926.00
563.71	940.00
563.97	878.00
564.23	893.00
564.49	906.00
564.74	891.00
565.00	869.00
565.26	881.00
565.51	895.00
565.77	899.00
566.03	883.00
566.29	884.00
566.54	865.00
566.80	890.00
567.06	863.00
567.31	909.00
567.57	935.00
567.83	897.00
568.09	881.00
568.34	881.00
568.60	907.00
568.86	942.00
569.11	918.00
569.37	873.00
569.63	906.00
569.89	926.00
570.14	850.00
570.40	873.00
570.66	888.00
570.91	895.00
571.17	864.00
571.43	897.00
571.69	925.00
571.94	930.00
572.20	860.00
572.46	860.00
572.71	908.00
572.97	898.00
573.23	869.00
573.48	874.00
573.74	892.00
574.00	931.00
574.26	860.00
574.51	874.00
574.77	931.00
575.03	910.00
575.28	883.00
575.54	880.00
575.80	870.00
576.05	886.00
576.31	850.00
576.57	850.00
576.82	867.00
577.08	889.00
577.34	883.00
577.59	891.00
577.85	921.00
578.11	876.00
578.37	837.00
578.62	874.00
578.88	917.00
579.14	924.00
579.39	873.00
579.65	888.00
579.91	906.00
580.16	903.00
580.42	870.00
580.68	874.00
580.93	909.00
581.19	891.00
581.45	855.00
581.70	892.00
581.96	927.00
582.22	914.00
582.47	892.00
582.73	899.00
582.99	938.00
583.24	914.00
583.50	882.00
583.76	881.00
584.01	901.00
584.27	927.00
584.53	891.00
584.78	897.00
585.04	877.00
585.30	894.00
585.55	901.00
585.81	873.00
586.07	935.00
586.32	945.00
586.58	885.00
586.83	870.00
587.09	909.00
587.35	902.00
587.60	857.00
587.86	874.00
588.12	890.00
588.37	916.00
588.63	866.00
588.89	908.00
589.14	924.00
589.40	916.00
589.66	869.00
589.91	891.00
590.17	925.00
590.43	873.00
590.68	862.00
590.94	880.00
591.19	912.00
591.45	920.00
591.71	873.00
591.96	883.00
592.22	897.00
592.48	909.00
592.73	862.00
592.99	868.00
593.25	886.00
593.50	913.00
593.76	862.00
594.01	884.00
594.27	915.00
594.53	910.00
594.78	874.00
595.04	885.00
595.30	889.00
595.55	898.00
595.81	851.00
596.06	884.00
596.32	923.00
596.58	934.00
596.83	872.00
597.09	898.00
597.35	901.00
597.60	894.00
597.86	856.00
598.11	862.00
598.37	925.00
598.63	921.00
598.88	880.00
599.14	867.00
599.39	928.00
599.65	893.00
599.91	846.00
600.16	876.00
600.42	905.00
600.67	946.00
600.93	882.00
601.19	917.00
601.44	958.00
601.70	923.00
601.95	870.00
602.21	901.00
602.47	907.00
602.72	895.00
602.98	859.00
603.23	886.00
603.49	912.00
603.75	932.00
604.00	862.00
604.26	856.00
604.51	889.00
604.77	927.00
605.03	849.00
605.28	850.00
605.54	924.00
605.79	932.00
606.05	844.00
606.31	857.00
606.56	892.00
606.82	943.00
607.07	901.00
607.33	902.00
607.59	908.00
607.84	894.00
608.10	857.00
608.35	878.00
608.61	914.00
608.86	912.00
609.12	875.00
609.38	909.00
609.63	944.00
609.89	922.00
610.14	873.00
610.40	883.00
610.65	907.00
610.91	898.00
611.17	865.00
611.42	891.00
611.68	932.00
611.93	937.00
612.19	910.00
612.44	919.00
612.70	915.00
612.96	883.00
613.21	859.00
613.47	861.00
613.72	896.00
613.98	902.00
614.23	873.00
614.49	884.00
614.75	906.00
615.00	900.00
615.26	886.00
615.51	886.00
615.77	901.00
616.02	916.00
616.28	879.00
616.53	889.00
616.79	916.00
617.05	894.00
617.30	887.00
617.56	903.00
617.81	934.00
618.07	910.00
618.32	866.00
618.58	897.00
618.83	921.00
619.09	910.00
619.34	883.00
619.60	890.00
619.86	920.00
620.11	954.00
620.37	918.00
620.62	902.00
620.88	914.00
621.13	924.00
621.39	896.00
621.64	912.00
621.90	941.00
622.15	909.00
622.41	896.00
622.66	912.00
622.92	935.00
623.18	931.00
623.43	868.00
623.69	899.00
623.94	928.00
624.20	939.00
624.45	918.00
624.71	939.00
624.96	939.00
625.22	977.00
625.47	947.00
625.73	953.00
625.98	974.00
626.24	958.00
626.49	920.00
626.75	961.00
627.00	997.00
627.26	993.00
627.51	969.00
627.77	960.00
628.02	1004.00
628.28	1004.00
628.53	973.00
628.79	1016.00
629.05	1019.00
629.30	1009.00
629.56	1000.00
629.81	1046.00
630.07	1041.00
630.32	1054.00
630.58	1056.00
630.83	1076.00
631.09	1096.00
631.34	1095.00
631.60	1046.00
631.85	1045.00
632.11	1091.00
632.36	1134.00
632.62	1091.00
632.87	1136.00
633.13	1162.00
633.38	1165.00
633.64	1155.00
633.89	1180.00
634.15	1225.00
634.40	1293.00
634.66	1236.00
634.91	1218.00
635.17	1263.00
635.42	1320.00
635.68	1287.00
635.93	1271.00
636.18	1316.00
636.44	1335.00
636.69	1270.00
636.95	1281.00
637.20	1334.00
637.46	1348.00
637.71	1276.00
637.97	1265.00
638.22	1298.00
638.48	1301.00
638.73	1260.00
638.99	1242.00
639.24	1296.00
639.50	1319.00
639.75	1222.00
640.01	1189.00
640.26	1206.00
640.52	1188.00
640.77	1099.00
641.03	1109.00
641.28	1170.00
641.54	1178.00
641.79	1114.00
642.04	1128.00
642.30	1118.00
642.55	1116.00
642.81	1076.00
643.06	1061.00
643.32	1081.00
643.57	1064.00
643.83	1014.00
644.08	992.00
644.34	1009.00
644.59	1033.00
644.85	982.00
645.10	967.00
645.35	974.00
645.61	950.00
645.86	936.00
646.12	951.00
646.37	996.00
646.63	985.00
646.88	908.00
647.14	919.00
647.39	950.00
647.65	992.00
647.90	922.00
648.15	946.00
648.41	965.00
648.66	945.00
648.92	911.00
649.17	917.00
649.43	938.00
649.68	928.00
649.94	922.00
650.19	910.00
650.44	919.00
650.70	915.00
650.95	888.00
651.21	902.00
651.46	942.00
651.72	937.00
651.97	920.00
652.23	906.00
652.48	905.00
652.73	910.00
652.99	885.00
653.24	914.00
653.50	903.00
653.75	922.00
654.01	886.00
654.26	903.00
654.51	912.00
654.77	931.00
655.02	909.00
655.28	883.00
655.53	892.00
655.79	904.00
656.04	886.00
656.29	882.00
656.55	892.00
656.80	923.00
657.06	860.00
657.31	874.00
657.56	899.00
657.82	910.00
658.07	872.00
658.33	874.00
658.58	900.00
658.84	915.00
659.09	882.00
659.34	900.00
659.60	918.00
659.85	904.00
660.11	877.00
660.36	881.00
660.61	897.00
660.87	873.00
661.12	862.00
661.38	894.00
661.63	881.00
661.88	885.00
662.14	914.00
662.39	915.00
662.65	922.00
662.90	930.00
663.15	864.00
663.41	902.00
663.66	940.00
663.92	943.00
664.17	865.00
664.42	896.00
664.68	908.00
664.93	882.00
665.19	857.00
665.44	865.00
665.69	878.00
665.95	907.00
666.20	866.00
666.45	898.00
666.71	908.00
666.96	918.00
667.22	855.00
667.47	876.00
667.72	881.00
667.98	883.00
668.23	867.00
668.49	912.00
668.74	908.00
668.99	906.00
669.25	878.00
669.50	882.00
669.75	898.00
670.01	912.00
670.26	849.00
670.52	878.00
670.77	907.00
671.02	911.00
671.28	873.00
671.53	907.00
671.78	916.00
672.04	907.00
672.29	887.00
672.54	868.00
672.80	900.00
673.05	891.00
673.31	862.00
673.56	906.00
673.81	930.00
674.07	910.00
674.32	886.00
674.57	874.00
674.83	884.00
675.08	904.00
675.33	876.00
675.59	885.00
675.84	901.00
676.09	892.00
676.35	868.00
676.60	886.00
676.86	904.00
677.11	925.00
677.36	879.00
677.62	885.00
677.87	922.00
678.12	950.00
678.38	868.00
678.63	896.00
678.88	921.00
679.14	916.00
679.39	855.00
679.64	896.00
679.90	896.00
680.15	912.00
680.40	897.00
680.66	869.00
680.91	886.00
681.16	896.00
681.42	862.00
681.67	861.00
681.92	892.00
682.18	926.00
682.43	862.00
682.68	865.00
682.94	881.00
683.19	876.00
683.44	860.00
683.70	885.00
683.95	905.00
684.20	891.00
684.46	888.00
684.71	906.00
684.96	886.00
685.22	918.00
685.47	899.00
685.72	893.00
685.98	931.00
686.23	857.00
686.48	849.00
686.74	914.00
686.99	926.00
687.24	897.00
687.50	854.00
687.75	864.00
688.00	890.00
688.25	895.00
688.51	894.00
688.76	909.00
689.01	882.00
689.27	885.00
689.52	851.00
689.77	872.00
690.03	870.00
690.28	879.00
690.53	878.00
690.79	899.00
691.04	907.00
691.29	911.00
691.54	839.00
691.80	878.00
692.05	914.00
692.30	910.00
692.56	863.00
692.81	894.00
693.06	878.00
693.32	867.00
693.57	867.00
693.82	889.00
694.07	908.00
694.33	907.00
694.58	871.00
694.83	887.00
695.09	893.00
695.34	909.00
695.59	880.00
695.84	888.00
696.10	917.00
696.35	911.00
696.60	860.00
696.86	857.00
697.11	886.00
697.36	915.00
697.61	864.00
697.87	886.00
698.12	884.00
698.37	891.00
698.63	888.00
698.88	873.00
699.13	899.00
699.38	900.00
699.64	869.00
699.89	869.00
700.14	888.00
700.39	890.00
700.65	866.00
700.90	890.00
701.15	902.00
701.40	908.00
701.66	877.00
701.91	894.00
702.16	893.00
702.42	876.00
702.67	846.00
702.92	855.00
703.17	893.00
703.43	899.00
703.68	889.00
703.93	918.00
704.18	936.00
704.44	913.00
704.69	876.00
704.94	896.00
705.19	902.00
705.45	924.00
705.70	897.00
705.95	863.00
706.20	860.00
706.46	906.00
706.71	871.00
706.96	876.00
707.21	890.00
707.47	910.00
707.72	878.00
707.97	885.00
708.22	912.00
708.48	915.00
708.73	871.00
708.98	858.00
709.23	899.00
709.49	894.00
709.74	859.00
709.99	889.00
710.24	892.00
710.50	885.00
710.75	872.00
711.00	903.00
711.25	894.00
711.50	878.00
711.76	860.00
712.01	869.00
712.26	866.00
712.51	900.00
712.77	869.00
713.02	876.00
713.27	862.00
713.52	881.00
713.78	865.00
714.03	885.00
714.28	878.00
714.53	912.00
714.78	873.00
715.04	890.00
715.29	884.00
715.54	892.00
715.79	858.00
716.05	899.00
716.30	907.00
716.55	905.00
716.80	886.00
717.05	895.00
717.31	899.00
717.56	914.00
717.81	875.00
718.06	885.00
718.31	867.00
718.57	892.00
718.82	873.00
719.07	913.00
719.32	880.00
719.57	906.00
719.83	856.00
720.08	885.00
720.33	886.00
720.58	884.00
720.83	857.00
721.09	896.00
721.34	894.00
721.59	918.00
721.84	870.00
722.09	877.00
722.35	885.00
722.60	891.00
722.85	859.00
723.10	881.00
723.35	875.00
723.61	908.00
723.86	896.00
724.11	874.00
724.36	895.00
724.61	890.00
724.87	867.00
725.12	869.00
725.37	865.00
725.62	880.00
725.87	867.00
726.12	867.00
726.38	858.00
726.63	900.00
726.88	873.00
727.13	901.00
727.38	898.00
727.64	899.00
727.89	870.00
728.14	874.00
728.39	855.00
728.64	907.00
728.89	885.00
729.15	901.00
729.40	905.00
729.65	920.00
729.90	865.00
730.15	892.00
730.40	897.00
730.66	894.00
730.91	857.00
731.16	878.00
731.41	882.00
731.66	896.00
731.91	866.00
732.17	902.00
732.42	902.00
732.67	893.00
732.92	863.00
733.17	882.00
733.42	878.00
733.68	888.00
733.93	864.00
734.18	891.00
734.43	877.00
734.68	892.00
734.93	872.00
735.18	884.00
735.44	883.00
735.69	887.00
735.94	838.00
736.19	877.00
736.44	875.00
736.69	922.00
736.95	870.00
737.20	887.00
737.45	897.00
737.70	910.00
737.95	885.00
738.20	911.00
738.45	909.00
738.70	905.00
738.96	883.00
739.21	898.00
739.46	909.00
739.71	928.00
739.96	889.00
740.21	917.00
740.46	967.00
740.72	924.00
740.97	862.00
741.22	904.00
741.47	886.00
741.72	916.00
741.97	870.00
742.22	881.00
742.47	901.00
742.73	890.00
742.98	849.00
743.23	852.00
743.48	859.00
743.73	908.00
743.98	888.00
744.23	866.00
744.48	889.00
744.74	882.00
744.99	855.00
745.24	902.00
745.49	887.00
745.74	896.00
745.99	862.00
746.24	877.00
746.49	885.00
746.74	877.00
747.00	883.00
747.25	870.00
747.50	851.00
747.75	855.00
748.00	831.00
748.25	866.00
748.50	876.00
748.75	910.00
749.00	910.00
749.26	932.00
749.51	914.00
749.76	911.00
750.01	854.00
750.26	874.00
750.51	913.00
750.76	904.00
751.01	845.00
751.26	874.00
751.51	897.00
751.77	908.00
752.02	886.00
752.27	873.00
752.52	883.00
752.77	891.00
753.02	865.00
753.27	877.00
753.52	878.00
753.77	876.00
754.02	863.00
754.27	871.00
754.52	863.00
754.78	895.00
755.03	880.00
755.28	904.00
755.53	893.00
755.78	875.00
756.03	835.00
756.28	882.00
756.53	894.00
756.78	897.00
757.03	853.00
757.28	878.00
757.53	899.00
757.79	870.00
758.04	849.00
758.29	907.00
758.54	906.00
758.79	911.00
759.04	863.00
759.29	867.00
759.54	872.00
759.79	877.00
760.04	880.00
760.29	862.00
760.54	865.00
760.79	881.00
761.04	869.00
761.29	873.00
761.55	874.00
761.80	896.00
762.05	862.00
762.30	899.00
762.55	907.00
762.80	906.00
763.05	892.00
763.30	884.00
763.55	903.00
763.80	911.00
764.05	849.00
764.30	877.00
764.55	909.00
764.80	901.00
765.05	865.00
765.30	900.00
765.55	906.00
765.80	895.00
766.05	861.00
766.30	890.00
766.56	881.00
766.81	896.00
767.06	874.00
767.31	872.00
767.56	861.00
767.81	875.00
768.06	866.00
768.31	881.00
768.56	898.00
768.81	932.00
769.06	873.00
769.31	881.00
769.56	880.00
769.81	906.00
770.06	862.00
770.31	873.00
770.56	908.00
770.81	905.00
771.06	871.00
771.31	890.00
771.56	894.00
771.81	909.00
772.06	861.00
772.31	880.00
772.56	884.00
772.81	913.00
773.06	863.00
773.31	875.00
773.56	893.00
773.81	868.00
774.06	838.00
774.31	876.00
774.56	890.00
774.81	913.00
775.06	890.00
775.31	907.00
775.56	906.00
775.81	875.00
776.06	847.00
776.31	876.00
776.56	901.00
776.82	895.00
777.07	859.00
777.32	874.00
777.57	890.00
777.82	941.00
778.07	866.00
778.32	869.00
778.57	894.00
778.82	921.00
779.07	883.00
779.32	892.00
779.57	860.00
779.82	878.00
780.07	869.00
780.32	886.00
780.56	874.00
780.81	929.00
781.06	870.00
781.31	880.00
781.56	926.00
781.81	909.00
782.06	869.00
782.31	900.00
782.56	899.00
782.81	907.00
783.06	870.00
783.31	891.00
783.56	875.00
783.81	886.00
784.06	882.00
784.31	872.00
784.56	847.00
784.81	904.00
785.06	874.00
785.31	891.00
785.56	864.00
785.81	870.00
786.06	850.00
786.31	906.00
786.56	873.00
786.81	882.00
787.06	886.00
787.31	874.00
787.56	866.00
787.81	864.00
788.06	854.00
788.31	898.00
788.56	868.00
788.81	906.00
789.06	873.00
789.31	876.00
789.56	888.00
789.81	876.00
790.06	860.00
790.31	908.00
790.56	879.00
790.80	879.00
791.05	854.00
791.30	851.00
791.55	873.00
791.80	900.00
792.05	868.00
792.30	866.00
792.55	856.00
792.80	887.00
793.05	876.00
793.30	884.00
793.55	897.00
793.80	908.00
794.05	873.00
794.30	894.00
794.55	895.00
794.80	898.00
795.05	860.00
795.30	880.00
795.54	870.00
795.79	896.00
796.04	858.00
796.29	874.00
796.54	887.00
796.79	907.00
797.04	873.00
797.29	896.00
797.54	908.00
797.79	893.00
798.04	859.00
798.29	855.00
798.54	870.00
798.79	888.00
799.04	858.00
799.29	886.00
799.53	886.00
799.78	893.00
800.03	871.00
800.28	860.00
800.53	870.00
800.78	936.00
801.03	870.00
801.28	869.00
801.53	884.00
801.78	910.00
802.03	869.00
802.28	894.00
802.52	900.00
802.77	914.00
803.02	882.00
803.27	911.00
803.52	874.00
803.77	910.00
804.02	893.00
804.27	924.00
804.52	905.00
804.77	914.00
805.02	876.00
805.27	893.00
805.51	900.00
805.76	918.00
806.01	885.00
806.26	885.00
806.51	868.00
806.76	907.00
807.01	883.00
807.26	866.00
807.51	902.00
807.76	866.00
808.00	858.00
808.25	882.00
808.50	893.00
808.75	878.00
809.00	865.00
809.25	888.00
809.50	874.00
809.75	909.00
810.00	887.00
810.24	868.00
810.49	833.00
810.74	874.00
810.99	891.00
811.24	915.00
811.49	896.00
811.74	894.00
811.99	827.00
812.24	868.00
812.48	865.00
812.73	889.00
812.98	831.00
813.23	856.00
813.48	872.00
813.73	890.00
813.98	843.00
814.23	876.00
814.47	876.00
814.72	871.00
814.97	846.00
815.22	886.00
815.47	873.00
815.72	874.00
815.97	846.00
816.22	859.00
816.46	883.00
816.71	909.00
816.96	885.00
817.21	908.00
817.46	870.00
817.71	881.00
817.96	865.00
818.20	876.00
818.45	861.00
818.70	896.00
818.95	864.00
819.20	865.00
819.45	882.00
819.70	892.00
819.94	854.00
820.19	881.00
820.44	885.00
820.69	916.00
820.94	873.00
821.19	893.00
821.44	944.00
821.68	935.00
821.93	876.00
822.18	891.00
822.43	908.00
822.68	913.00
822.93	872.00
823.17	892.00
823.42	892.00
823.67	890.00
823.92	871.00
824.17	896.00
824.42	882.00
824.67	912.00
824.91	876.00
825.16	894.00
825.41	894.00
825.66	881.00
825.91	847.00
826.16	869.00
826.40	890.00
826.65	883.00
826.90	861.00
827.15	864.00
827.40	906.00
827.65	923.00
827.89	844.00
828.14	870.00
828.39	887.00
828.64	898.00
828.89	846.00
829.13	858.00
829.38	858.00
829.63	887.00
829.88	873.00
830.13	877.00
830.38	872.00
830.62	882.00
830.87	861.00
831.12	894.00
831.37	922.00
831.62	928.00
831.86	868.00
832.11	877.00
832.36	844.00
832.61	908.00
832.86	867.00
833.10	884.00
833.35	887.00
833.60	910.00
833.85	879.00
834.10	896.00
834.35	916.00
834.59	915.00
834.84	870.00
835.09	889.00
835.34	860.00
835.59	871.00
835.83	880.00
836.08	888.00
836.33	891.00
836.58	898.00
836.83	869.00
837.07	894.00
837.32	901.00
837.57	886.00
837.82	868.00
838.06	890.00
838.31	919.00
838.56	934.00
838.81	861.00
839.06	899.00
839.30	881.00
839.55	902.00
839.80	850.00
840.05	881.00
840.30	913.00
840.54	937.00
840.79	871.00
841.04	897.00
841.29	892.00
841.53	909.00
841.78	873.00
842.03	865.00
842.28	840.00
842.53	868.00
842.77	878.00
843.02	896.00
843.27	894.00
843.52	889.00
843.76	876.00
844.01	883.00
844.26	867.00
844.51	916.00
844.75	874.00
845.00	866.00
845.25	875.00
845.50	893.00
845.75	861.00
845.99	900.00
846.24	883.00
846.49	905.00
846.74	860.00
846.98	861.00
847.23	874.00
847.48	891.00
847.73	856.00
847.97	885.00
848.22	906.00
848.47	899.00
848.72	876.00
848.96	862.00
849.21	901.00
849.46	876.00
849.71	857.00
849.95	891.00
850.20	873.00
850.45	886.00
850.70	850.00
850.94	885.00
851.19	867.00
851.44	881.00
851.69	855.00
851.93	882.00
852.18	911.00
852.43	924.00
852.68	894.00
852.92	912.00
853.17	919.00
853.42	914.00
853.66	884.00
853.91	897.00
854.16	892.00
854.41	906.00
854.65	861.00
854.90	872.00
855.15	879.00
855.40	880.00
855.64	866.00
855.89	880.00
856.14	882.00
856.39	870.00
856.63	855.00
856.88	871.00
857.13	874.00
857.37	871.00
857.62	870.00
857.87	862.00
858.12	881.00
858.36	911.00
858.61	824.00
858.86	888.00
859.10	907.00
859.35	885.00
859.60	860.00
859.85	843.00
860.09	867.00
860.34	890.00
860.59	863.00
860.83	881.00
861.08	883.00
861.33	924.00
861.58	872.00
861.82	873.00
862.07	888.00
862.32	898.00
862.56	862.00
862.81	873.00
863.06	871.00
863.30	876.00
863.55	864.00
863.80	880.00
864.05	894.00
864.29	896.00
864.54	895.00
864.79	891.00
865.03	889.00
865.28	918.00
865.53	885.00
865.77	871.00
866.02	891.00
866.27	908.00
866.51	886.00
866.76	871.00
867.01	871.00
867.26	902.00
867.50	854.00
867.75	866.00
868.00	887.00
868.24	907.00
868.49	862.00
868.74	868.00
868.98	864.00
869.23	879.00
869.48	880.00
869.72	872.00
869.97	886.00
870.22	920.00
870.46	874.00
870.71	890.00
870.96	890.00
871.20	892.00
871.45	842.00
871.70	885.00
871.94	902.00
872.19	904.00
872.44	886.00
872.68	884.00
872.93	903.00
873.18	915.00
873.42	861.00
873.67	884.00
873.92	910.00
874.16	892.00
874.41	869.00
874.66	899.00
874.90	892.00
875.15	914.00
875.40	897.00
875.64	886.00
875.89	894.00
876.14	897.00
876.38	860.00
876.63	889.00
876.88	891.00
877.12	883.00
877.37	870.00
877.62	894.00
877.86	885.00
878.11	906.00
878.36	859.00
878.60	885.00
878.85	872.00
879.09	882.00
879.34	851.00
879.59	880.00
879.83	914.00
880.08	931.00
880.33	896.00
880.57	900.00
880.82	893.00
881.07	898.00
881.31	872.00
881.56	891.00
881.80	879.00
882.05	881.00
882.30	839.00
882.54	865.00
882.79	906.00
883.04	930.00
883.28	914.00
883.53	893.00
883.77	899.00
884.02	901.00
884.27	856.00
884.51	862.00
884.76	870.00
885.01	901.00
885.25	840.00
885.50	885.00
885.74	874.00
885.99	912.00
886.24	870.00
886.48	887.00
886.73	900.00
886.98	929.00
887.22	889.00
887.47	913.00
887.71	921.00
887.96	924.00
888.21	891.00
888.45	879.00
888.70	883.00
888.94	923.00
889.19	859.00
889.44	875.00
889.68	889.00
889.93	914.00
890.17	872.00
890.42	862.00
890.67	904.00
890.91	984.00
891.16	873.00
891.40	870.00
891.65	877.00
891.90	906.00
892.14	856.00
892.39	898.00
892.63	905.00
892.88	927.00
893.13	889.00
893.37	871.00
893.62	886.00
893.86	915.00
894.11	874.00
894.36	882.00
894.60	861.00
894.85	880.00
895.09	863.00
895.34	906.00
895.59	891.00
895.83	891.00
896.08	865.00
896.32	857.00
896.57	868.00
896.81	897.00
897.06	849.00
897.31	869.00
897.55	901.00
897.80	876.00
898.04	844.00
898.29	873.00
898.53	878.00
898.78	908.00
899.03	886.00
899.27	874.00
899.52	896.00
899.76	918.00
900.01	871.00
900.25	874.00
900.50	910.00
900.75	912.00
900.99	874.00
901.24	956.00
901.48	905.00
901.73	883.00
901.97	868.00
902.22	899.00
902.47	914.00
902.71	898.00
902.96	858.00
903.20	878.00
903.45	893.00
903.69	900.00
903.94	863.00
904.18	851.00
904.43	858.00
904.68	893.00
904.92	850.00
905.17	885.00
905.41	923.00
905.66	926.00
905.90	909.00
906.15	881.00
906.39	895.00
906.64	900.00
906.88	858.00
907.13	877.00
907.38	896.00
907.62	915.00
907.87	870.00
908.11	896.00
908.36	880.00
908.60	891.00
908.85	830.00
909.09	871.00
909.34	877.00
909.58	901.00
909.83	873.00
910.07	884.00
910.32	914.00
910.56	936.00
910.81	869.00
911.06	892.00
911.30	890.00
911.55	893.00
911.79	859.00
912.04	867.00
912.28	856.00
912.53	898.00
912.77	881.00
913.02	871.00
913.26	878.00
913.51	901.00
913.75	868.00
914.00	852.00
914.24	880.00
914.49	882.00
914.73	859.00
914.98	898.00
915.22	909.00
915.47	896.00
915.71	858.00
915.96	895.00
916.20	885.00
916.45	866.00
916.69	848.00
916.94	875.00
917.18	889.00
917.43	893.00
917.67	858.00
917.92	859.00
918.16	898.00
918.41	911.00
918.65	857.00
918.90	852.00
919.14	861.00
919.39	881.00
919.63	845.00
919.88	853.00
920.12	902.00
920.37	894.00
920.61	861.00
920.86	891.00
921.10	912.00
921.35	883.00
921.59	848.00
921.84	884.00
922.08	901.00
922.33	910.00
922.57	851.00
922.82	857.00
923.06	886.00
923.31	917.00
923.55	858.00
923.80	871.00
924.04	857.00
924.29	904.00
924.53	865.00
924.78	882.00
925.02	873.00
925.27	878.00
925.51	878.00
925.76	906.00
926.00	890.00
926.25	890.00
926.49	861.00
926.73	890.00
926.98	899.00
927.22	923.00
927.47	892.00
927.71	865.00
927.96	897.00
928.20	893.00
928.45	888.00
928.69	920.00
928.94	912.00
929.18	884.00
929.43	887.00
929.67	878.00
929.91	887.00
930.16	909.00
930.40	854.00
930.65	854.00
930.89	894.00
931.14	928.00
931.38	881.00
931.63	896.00
931.87	901.00
932.12	896.00
932.36	844.00
932.60	865.00
932.85	897.00
933.09	878.00
933.34	859.00
933.58	887.00
933.83	862.00
934.07	898.00
934.32	886.00
934.56	877.00
934.80	910.00
935.05	925.00
935.29	893.00
935.54	894.00
935.78	899.00
936.03	896.00
936.27	850.00
936.52	881.00
936.76	888.00
937.00	895.00
937.25	865.00
937.49	873.00
937.74	910.00
937.98	924.00
938.23	848.00
938.47	856.00
938.71	872.00
938.96	891.00
939.20	842.00
939.45	859.00
939.69	882.00
939.94	893.00
940.18	845.00
940.42	879.00
940.67	906.00
940.91	887.00
941.16	877.00
941.40	873.00
941.64	880.00
941.89	892.00
942.13	849.00
942.38	887.00
942.62	951.00
942.87	909.00
943.11	877.00
943.35	873.00
943.60	902.00
943.84	932.00
944.09	885.00
944.33	911.00
944.57	917.00
944.82	870.00
945.06	859.00
945.31	890.00
945.55	876.00
945.79	898.00
946.04	860.00
946.28	868.00
946.53	887.00
946.77	904.00
947.01	847.00
947.26	898.00
947.50	879.00
947.75	886.00
947.99	863.00
948.23	883.00
948.48	889.00
948.72	910.00
948.97	871.00
949.21	869.00
949.45	902.00
949.70	928.00
949.94	880.00
950.18	879.00
950.43	877.00
950.67	887.00
950.92	858.00
951.16	861.00
951.40	876.00
951.65	878.00
951.89	877.00
952.13	888.00
952.38	907.00
952.62	892.00
952.87	858.00
953.11	896.00
953.35	916.00
953.60	901.00
953.84	837.00
954.08	841.00
954.33	880.00
954.57	899.00
954.82	864.00
955.06	876.00
955.30	866.00
955.55	871.00
955.79	877.00
956.03	869.00
956.28	880.00
956.52	872.00
956.76	870.00
957.01	890.00
957.25	872.00
957.50	899.00
957.74	865.00
957.98	865.00
958.23	898.00
958.47	886.00
958.71	870.00
958.96	912.00
959.20	920.00
959.44	884.00
959.69	860.00
959.93	894.00
960.17	887.00
960.42	892.00
960.66	880.00
960.90	888.00
961.15	881.00
961.39	876.00
961.64	831.00
961.88	848.00
962.12	890.00
962.37	899.00
962.61	871.00
962.85	849.00
963.10	902.00
963.34	892.00
963.58	853.00
963.83	876.00
964.07	890.00
964.31	904.00
964.56	888.00
964.80	866.00
965.04	893.00
965.29	899.00
965.53	846.00
965.77	846.00
966.02	848.00
966.26	875.00
966.50	852.00
966.74	900.00
966.99	918.00
967.23	905.00
967.47	879.00
967.72	886.00
967.96	887.00
968.20	871.00
968.45	854.00
968.69	866.00
968.93	884.00
969.18	913.00
969.42	890.00
969.66	871.00
969.91	869.00
970.15	894.00
970.39	849.00
970.64	878.00
970.88	897.00
971.12	906.00
971.36	880.00
971.61	859.00
971.85	893.00
972.09	888.00
972.34	868.00
972.58	883.00
972.82	895.00
973.07	913.00
973.31	854.00
973.55	858.00
973.79	901.00
974.04	920.00
974.28	884.00
974.52	874.00
974.77	864.00
975.01	906.00
975.25	892.00
975.50	898.00
975.74	917.00
975.98	893.00
976.22	865.00
976.47	882.00
976.71	881.00
976.95	887.00
977.20	891.00
977.44	878.00
977.68	871.00
977.92	889.00
978.17	865.00
978.41	866.00
978.65	898.00
978.90	892.00
979.14	886.00
979.38	903.00
979.62	871.00
979.87	866.00
980.11	836.00
980.35	874.00
980.59	894.00
980.84	884.00
981.08	863.00
981.32	866.00
981.57	893.00
981.81	892.00
982.05	865.00
982.29	868.00
982.54	880.00
982.78	897.00
983.02	864.00
983.26	890.00
983.51	912.00
983.75	910.00
983.99	849.00
984.23	882.00
984.48	880.00
984.72	905.00
984.96	853.00
985.20	850.00
985.45	912.00
985.69	915.00
985.93	878.00
986.17	902.00
986.42	893.00
986.66	886.00
986.90	832.00
987.14	870.00
987.39	883.00
987.63	858.00
987.87	836.00
988.11	860.00
988.36	897.00
988.60	907.00
988.84	886.00
989.08	862.00
989.33	913.00
989.57	904.00
989.81	841.00
990.05	850.00
990.30	867.00
990.54	878.00
990.78	854.00
991.02	846.00
991.27	880.00
991.51	892.00
991.75	860.00
991.99	898.00
992.23	867.00
992.48	878.00
992.72	868.00
992.96	862.00
993.20	884.00
993.45	903.00
993.69	901.00
993.93	856.00
994.17	890.00
994.41	897.00
994.66	839.00
994.90	870.00
995.14	914.00
995.38	894.00
995.63	880.00
995.87	864.00
996.11	922.00
996.35	913.00
996.59	856.00
996.84	884.00
997.08	894.00
997.32	878.00
997.56	864.00
997.80	838.00
998.05	854.00
998.29	876.00
998.53	855.00
998.77	874.00
999.01	897.00
999.26	883.00
999.50	872.00
999.74	846.00
999.98	889.00
1000.22	893.00
1000.47	843.00
1000.71	854.00
1000.95	894.00
1001.19	890.00
1001.43	868.00
1001.68	868.00
1001.92	873.00
1002.16	869.00
1002.40	842.00
1002.64	881.00
1002.89	898.00
1003.13	897.00
1003.37	881.00
1003.61	855.00
1003.85	878.00
1004.10	858.00
1004.34	869.00
1004.58	872.00
1004.82	900.00
1005.06	888.00
1005.30	846.00
1005.55	851.00
1005.79	892.00
1006.03	882.00
1006.27	873.00
1006.51	887.00
1006.76	890.00
1007.00	901.00
1007.24	865.00
1007.48	880.00
1007.72	904.00
1007.96	898.00
1008.21	882.00
1008.45	888.00
1008.69	899.00
1008.93	908.00
1009.17	878.00
1009.41	910.00
1009.66	909.00
1009.90	885.00
1010.14	858.00
1010.38	884.00
1010.62	905.00
1010.86	922.00
1011.10	890.00
1011.35	863.00
1011.59	881.00
1011.83	854.00
1012.07	846.00
1012.31	880.00
1012.55	885.00
1012.80	901.00
1013.04	890.00
1013.28	900.00
1013.52	883.00
1013.76	910.00
1014.00	852.00
1014.24	872.00
1014.49	900.00
1014.73	934.00
1014.97	908.00
1015.21	901.00
1015.45	913.00
1015.69	884.00
1015.93	876.00
1016.18	870.00
1016.42	927.00
1016.66	895.00
1016.90	868.00
1017.14	856.00
1017.38	861.00
1017.62	889.00
1017.87	880.00
1018.11	878.00
1018.35	889.00
1018.59	896.00
1018.83	851.00
1019.07	892.00
1019.31	909.00
1019.55	903.00
1019.80	869.00
1020.04	878.00
1020.28	884.00
1020.52	885.00
1020.76	849.00
1021.00	851.00
1021.24	871.00
1021.48	865.00
1021.73	874.00
1021.97	874.00
1022.21	874.00
1022.45	884.00
1022.69	861.00
1022.93	869.00
1023.17	902.00
1023.41	914.00
1023.65	883.00
1023.90	903.00
1024.14	908.00
1024.38	880.00
1024.62	858.00
1024.86	875.00
1025.10	906.00
1025.34	885.00
1025.58	835.00
1025.82	882.00
1026.07	906.00
1026.31	896.00
1026.55	861.00
1026.79	866.00
1027.03	901.00
1027.27	907.00
1027.51	852.00
1027.75	836.00
1027.99	867.00
1028.23	918.00
1028.47	889.00
1028.72	877.00
1028.96	892.00
1029.20	893.00
1029.44	876.00
1029.68	875.00
1029.92	894.00
1030.16	911.00
1030.40	830.00
1030.64	856.00
1030.88	873.00
1031.12	866.00
1031.37	833.00
1031.61	864.00
1031.85	908.00
1032.09	901.00
1032.33	869.00
1032.57	923.00
1032.81	880.00
1033.05	901.00
1033.29	879.00
1033.53	874.00
1033.77	939.00
1034.01	941.00
1034.25	886.00
1034.50	873.00
1034.74	876.00
1034.98	914.00
1035.22	870.00
1035.46	873.00
1035.70	912.00
1035.94	919.00
1036.18	868.00
1036.42	862.00
1036.66	866.00
1036.90	883.00
1037.14	839.00
1037.38	872.00
1037.62	897.00
1037.86	894.00
1038.10	880.00
1038.35	853.00
1038.59	892.00
1038.83	905.00
1039.07	877.00
1039.31	906.00
1039.55	864.00
1039.79	881.00
1040.03	843.00
1040.27	845.00
1040.51	922.00
1040.75	935.00
1040.99	871.00
1041.23	885.00
1041.47	886.00
1041.71	913.00
1041.95	875.00
1042.19	872.00
1042.43	920.00
1042.67	924.00
1042.91	881.00
1043.15	872.00
1043.39	919.00
1043.64	909.00
1043.88	864.00
1044.12	868.00
1044.36	939.00
1044.60	915.00
1044.84	885.00
1045.08	891.00
1045.32	891.00
1045.56	899.00
1045.80	876.00
1046.04	870.00
1046.28	923.00
1046.52	897.00
1046.76	857.00
1047.00	871.00
1047.24	905.00
1047.48	900.00
1047.72	893.00
1047.96	878.00
1048.20	885.00
1048.44	884.00
1048.68	855.00
1048.92	878.00
1049.16	884.00
1049.40	881.00
1049.64	869.00
1049.88	889.00
1050.12	925.00
1050.36	918.00
1050.60	890.00
1050.84	898.00
1051.08	888.00
1051.32	885.00
1051.56	887.00
1051.80	885.00
1052.04	898.00
1052.28	914.00
1052.52	864.00
1052.76	858.00
1053.00	867.00
1053.24	886.00
1053.48	838.00
1053.72	845.00
1053.96	888.00
1054.20	917.00
1054.44	887.00
1054.68	902.00
1054.92	891.00
1055.16	872.00
1055.40	858.00
1055.64	873.00
1055.88	904.00
1056.12	920.00
1056.36	843.00
1056.60	855.00
1056.84	914.00
1057.08	918.00
1057.32	895.00
1057.56	867.00
1057.80	871.00
1058.04	900.00
1058.28	849.00
1058.52	870.00
1058.76	904.00
1059.00	896.00
1059.24	849.00
1059.48	858.00
1059.72	899.00
1059.96	892.00
1060.20	886.00
1060.44	912.00
1060.68	922.00
1060.92	893.00
1061.16	839.00
1061.40	874.00
1061.64	891.00
1061.88	890.00
1062.11	868.00
1062.35	854.00
1062.59	882.00
1062.83	913.00
1063.07	869.00
1063.31	854.00
1063.55	874.00
1063.79	905.00
1064.03	861.00
1064.27	854.00
1064.51	889.00
1064.75	909.00
1064.99	877.00
1065.23	872.00
1065.47	875.00
1065.71	909.00
1065.95	866.00
1066.19	871.00
1066.43	904.00
1066.67	905.00
1066.91	892.00
1067.15	888.00
1067.38	901.00
1067.62	905.00
1067.86	850.00
1068.10	873.00
1068.34	923.00
1068.58	924.00
1068.82	881.00
1069.06	835.00
1069.30	885.00
1069.54	913.00
1069.78	889.00
1070.02	872.00
1070.26	902.00
1070.50	926.00
1070.74	879.00
1070.98	903.00
1071.21	916.00
1071.45	902.00
1071.69	849.00
1071.93	873.00
1072.17	905.00
1072.41	886.00
1072.65	886.00
1072.89	910.00
1073.13	894.00
1073.37	883.00
1073.61	845.00
1073.85	867.00
1074.09	857.00
1074.32	859.00
1074.56	873.00
1074.80	950.00
1075.04	1146.00
1075.28	1001.00
1075.52	869.00
1075.76	880.00
1076.00	912.00
1076.24	926.00
1076.48	894.00
1076.72	883.00
1076.96	905.00
1077.19	901.00
1077.43	865.00
1077.67	901.00
1077.91	913.00
1078.15	871.00
1078.39	867.00
1078.63	873.00
1078.87	883.00
1079.11	903.00
1079.35	873.00
1079.58	862.00
1079.82	881.00
1080.06	854.00
1080.30	835.00
1080.54	875.00
1080.78	912.00
1081.02	875.00
1081.26	866.00
1081.50	896.00
1081.74	885.00
1081.97	898.00
1082.21	884.00
1082.45	896.00
1082.69	901.00
1082.93	884.00
1083.17	877.00
1083.41	867.00
1083.65	903.00
1083.88	922.00
1084.12	883.00
1084.36	888.00
1084.60	905.00
1084.84	896.00
1085.08	857.00
1085.32	860.00
1085.56	912.00
1085.80	912.00
1086.03	878.00
1086.27	861.00
1086.51	891.00
1086.75	918.00
1086.99	870.00
1087.23	855.00
1087.47	896.00
1087.70	880.00
1087.94	866.00
1088.18	897.00
1088.42	947.00
1088.66	894.00
1088.90	837.00
1089.14	873.00
1089.38	896.00
1089.61	908.00
1089.85	870.00
1090.09	854.00
1090.33	921.00
1090.57	910.00
1090.81	840.00
1091.05	862.00
1091.28	882.00
1091.52	902.00
1091.76	873.00
1092.00	876.00
1092.24	896.00
1092.48	918.00
1092.71	858.00
1092.95	881.00
1093.19	896.00
1093.43	880.00
1093.67	847.00
1093.91	886.00
1094.15	900.00
1094.38	903.00
1094.62	857.00
1094.86	864.00
1095.10	861.00
1095.34	871.00
1095.58	860.00
1095.81	890.00
1096.05	922.00
1096.29	913.00
1096.53	856.00
1096.77	887.00
1097.01	875.00
1097.24	914.00
1097.48	871.00
1097.72	880.00
1097.96	880.00
1098.20	906.00
1098.44	849.00
1098.67	841.00
1098.91	889.00
1099.15	893.00
1099.39	872.00
1099.63	884.00
1099.86	914.00
1100.10	871.00
1100.34	852.00
1100.58	853.00
1100.82	892.00
1101.06	897.00
1101.29	865.00
1101.53	893.00
1101.77	901.00
1102.01	878.00
1102.25	872.00
1102.48	883.00
1102.72	919.00
1102.96	902.00
1103.20	869.00
1103.44	880.00
1103.67	872.00
1103.91	894.00
1104.15	849.00
1104.39	869.00
1104.63	892.00
1104.86	876.00
1105.10	862.00
1105.34	902.00
1105.58	880.00
1105.82	874.00
1106.05	865.00
1106.29	887.00
1106.53	901.00
1106.77	924.00
1107.01	869.00
1107.24	872.00
1107.48	933.00
1107.72	904.00
1107.96	851.00
1108.20	869.00
1108.43	889.00
1108.67	888.00
1108.91	869.00
1109.15	863.00
1109.39	893.00
1109.62	889.00
1109.86	849.00
1110.10	853.00
1110.34	926.00
1110.57	929.00
1110.81	874.00
1111.05	868.00
1111.29	904.00
1111.53	926.00
1111.76	866.00
1112.00	908.00
1112.24	910.00
1112.48	902.00
1112.71	853.00
1112.95	861.00
1113.19	918.00
1113.43	904.00
1113.66	857.00
1113.90	901.00
1114.14	893.00
1114.38	897.00
1114.62	860.00
1114.85	889.00
1115.09	898.00
1115.33	944.00
1115.57	883.00
1115.80	860.00
1116.04	885.00
1116.28	878.00
1116.52	868.00
1116.75	869.00
1116.99	915.00
1117.23	910.00
1117.47	890.00
1117.70	924.00
1117.94	958.00
1118.18	887.00
1118.42	868.00
1118.65	904.00
1118.89	917.00
1119.13	907.00
1119.37	869.00
1119.60	882.00
1119.84	889.00
>>>>>End Processed Spectral Data<<<<<
