SpectraSuite Data File
++++++++++++++++++++++++++++++++++++
Date: Fri Dec 06 16:09:54 CET 2024
User: student
Dark Spectrum Present: No
Reference Spectrum Present: No
Number of Sampled Component Spectra: 1
Spectrometers: HR4C155
Integration Time (usec): 100000 (HR4C155)
Spectra Averaged: 1 (HR4C155)
Boxcar Smoothing: 0 (HR4C155)
Correct for Electrical Dark: No (HR4C155)
Strobe/Lamp Enabled: No (HR4C155)
Correct for Detector Non-linearity: No (HR4C155)
Correct for Stray Light: No (HR4C155)
Number of Pixels in Processed Spectrum: 3648
>>>>>Begin Processed Spectral Data<<<<<
195.39	725.00
195.66	725.00
195.93	725.00
196.20	665.00
196.46	732.00
196.73	851.00
197.00	844.00
197.27	822.00
197.54	868.00
197.81	880.00
198.08	862.00
198.35	896.00
198.61	916.00
198.88	879.00
199.15	876.00
199.42	895.00
199.69	889.00
199.96	863.00
200.23	875.00
200.49	881.00
200.76	900.00
201.03	887.00
201.30	881.00
201.57	934.00
201.84	946.00
202.11	905.00
202.38	934.00
202.64	924.00
202.91	940.00
203.18	883.00
203.45	939.00
203.72	1014.00
203.99	949.00
204.25	936.00
204.52	922.00
204.79	944.00
205.06	938.00
205.33	888.00
205.60	903.00
205.87	939.00
206.13	938.00
206.40	903.00
206.67	879.00
206.94	917.00
207.21	931.00
207.48	907.00
207.75	904.00
208.01	939.00
208.28	941.00
208.55	896.00
208.82	915.00
209.09	924.00
209.36	957.00
209.62	923.00
209.89	915.00
210.16	934.00
210.43	971.00
210.70	904.00
210.97	925.00
211.23	955.00
211.50	964.00
211.77	916.00
212.04	927.00
212.31	930.00
212.58	955.00
212.84	923.00
213.11	921.00
213.38	893.00
213.65	929.00
213.92	893.00
214.18	914.00
214.45	970.00
214.72	954.00
214.99	907.00
215.26	915.00
215.53	900.00
215.79	923.00
216.06	937.00
216.33	935.00
216.60	898.00
216.87	948.00
217.13	862.00
217.40	889.00
217.67	936.00
217.94	973.00
218.21	904.00
218.48	949.00
218.74	984.00
219.01	945.00
219.28	876.00
219.55	886.00
219.82	918.00
220.08	952.00
220.35	902.00
220.62	926.00
220.89	955.00
221.16	979.00
221.42	925.00
221.69	936.00
221.96	954.00
222.23	963.00
222.50	946.00
222.76	937.00
223.03	917.00
223.30	907.00
223.57	889.00
223.84	885.00
224.10	902.00
224.37	941.00
224.64	898.00
224.91	901.00
225.18	962.00
225.44	956.00
225.71	890.00
225.98	927.00
226.25	949.00
226.51	967.00
226.78	909.00
227.05	901.00
227.32	922.00
227.59	932.00
227.85	930.00
228.12	912.00
228.39	946.00
228.66	955.00
228.92	953.00
229.19	930.00
229.46	950.00
229.73	922.00
230.00	917.00
230.26	940.00
230.53	953.00
230.80	934.00
231.07	879.00
231.33	884.00
231.60	938.00
231.87	943.00
232.14	911.00
232.41	950.00
232.67	927.00
232.94	933.00
233.21	897.00
233.48	917.00
233.74	927.00
234.01	919.00
234.28	883.00
234.55	903.00
234.81	906.00
235.08	961.00
235.35	899.00
235.62	933.00
235.88	936.00
236.15	961.00
236.42	918.00
236.69	918.00
236.95	938.00
237.22	931.00
237.49	907.00
237.76	902.00
238.02	941.00
238.29	949.00
238.56	916.00
238.83	906.00
239.09	902.00
239.36	948.00
239.63	921.00
239.90	930.00
240.16	962.00
240.43	993.00
240.70	920.00
240.97	905.00
241.23	907.00
241.50	931.00
241.77	922.00
242.04	916.00
242.30	889.00
242.57	914.00
242.84	889.00
243.11	898.00
243.37	885.00
243.64	965.00
243.91	914.00
244.18	919.00
244.44	906.00
244.71	907.00
244.98	902.00
245.24	905.00
245.51	936.00
245.78	964.00
246.05	889.00
246.31	893.00
246.58	946.00
246.85	920.00
247.12	893.00
247.38	935.00
247.65	945.00
247.92	940.00
248.18	913.00
248.45	894.00
248.72	915.00
248.99	932.00
249.25	882.00
249.52	890.00
249.79	926.00
250.05	939.00
250.32	904.00
250.59	898.00
250.86	918.00
251.12	928.00
251.39	895.00
251.66	907.00
251.92	938.00
252.19	959.00
252.46	902.00
252.73	940.00
252.99	962.00
253.26	974.00
253.53	902.00
253.79	933.00
254.06	934.00
254.33	908.00
254.60	873.00
254.86	901.00
255.13	944.00
255.40	968.00
255.66	902.00
255.93	913.00
256.20	936.00
256.46	953.00
256.73	903.00
257.00	907.00
257.26	934.00
257.53	949.00
257.80	918.00
258.07	927.00
258.33	970.00
258.60	953.00
258.87	894.00
259.13	914.00
259.40	915.00
259.67	965.00
259.93	919.00
260.20	943.00
260.47	957.00
260.73	921.00
261.00	912.00
261.27	910.00
261.53	942.00
261.80	927.00
262.07	872.00
262.34	903.00
262.60	906.00
262.87	922.00
263.14	892.00
263.40	936.00
263.67	907.00
263.94	928.00
264.20	905.00
264.47	890.00
264.74	915.00
265.00	911.00
265.27	875.00
265.54	891.00
265.80	925.00
266.07	965.00
266.34	913.00
266.60	915.00
266.87	934.00
267.14	938.00
267.40	882.00
267.67	881.00
267.94	938.00
268.20	924.00
268.47	876.00
268.74	875.00
269.00	917.00
269.27	904.00
269.54	868.00
269.80	878.00
270.07	947.00
270.33	912.00
270.60	898.00
270.87	925.00
271.13	917.00
271.40	924.00
271.67	865.00
271.93	867.00
272.20	914.00
272.47	901.00
272.73	865.00
273.00	904.00
273.27	907.00
273.53	953.00
273.80	911.00
274.07	902.00
274.33	907.00
274.60	941.00
274.86	913.00
275.13	920.00
275.40	914.00
275.66	954.00
275.93	899.00
276.20	891.00
276.46	899.00
276.73	895.00
277.00	901.00
277.26	930.00
277.53	946.00
277.79	919.00
278.06	898.00
278.33	951.00
278.59	936.00
278.86	909.00
279.13	905.00
279.39	921.00
279.66	930.00
279.93	930.00
280.19	882.00
280.46	881.00
280.72	910.00
280.99	942.00
281.26	892.00
281.52	888.00
281.79	936.00
282.05	932.00
282.32	888.00
282.59	904.00
282.85	954.00
283.12	941.00
283.39	908.00
283.65	915.00
283.92	927.00
284.18	953.00
284.45	907.00
284.72	909.00
284.98	910.00
285.25	905.00
285.51	930.00
285.78	916.00
286.05	914.00
286.31	912.00
286.58	871.00
286.84	889.00
287.11	913.00
287.38	926.00
287.64	927.00
287.91	906.00
288.17	936.00
288.44	945.00
288.71	886.00
288.97	901.00
289.24	924.00
289.50	910.00
289.77	905.00
290.04	878.00
290.30	908.00
290.57	954.00
290.83	898.00
291.10	902.00
291.37	930.00
291.63	901.00
291.90	927.00
292.16	914.00
292.43	923.00
292.70	891.00
292.96	852.00
293.23	876.00
293.49	900.00
293.76	943.00
294.02	900.00
294.29	893.00
294.56	927.00
294.82	920.00
295.09	889.00
295.35	883.00
295.62	931.00
295.89	950.00
296.15	896.00
296.42	906.00
296.68	909.00
296.95	932.00
297.21	917.00
297.48	890.00
297.75	915.00
298.01	952.00
298.28	910.00
298.54	922.00
298.81	918.00
299.07	932.00
299.34	872.00
299.61	898.00
299.87	934.00
300.14	924.00
300.40	926.00
300.67	912.00
300.93	935.00
301.20	957.00
301.46	884.00
301.73	912.00
302.00	929.00
302.26	901.00
302.53	916.00
302.79	912.00
303.06	939.00
303.32	975.00
303.59	897.00
303.85	886.00
304.12	909.00
304.39	927.00
304.65	887.00
304.92	903.00
305.18	926.00
305.45	943.00
305.71	912.00
305.98	915.00
306.24	924.00
306.51	931.00
306.77	894.00
307.04	906.00
307.31	946.00
307.57	953.00
307.84	882.00
308.10	893.00
308.37	888.00
308.63	906.00
308.90	897.00
309.16	905.00
309.43	933.00
309.69	904.00
309.96	902.00
310.22	904.00
310.49	923.00
310.76	931.00
311.02	855.00
311.29	884.00
311.55	902.00
311.82	908.00
312.08	903.00
312.35	931.00
312.61	956.00
312.88	934.00
313.14	891.00
313.41	875.00
313.67	889.00
313.94	917.00
314.20	893.00
314.47	905.00
314.73	906.00
315.00	913.00
315.26	897.00
315.53	932.00
315.79	909.00
316.06	907.00
316.32	880.00
316.59	903.00
316.85	925.00
317.12	943.00
317.39	875.00
317.65	879.00
317.92	906.00
318.18	929.00
318.45	919.00
318.71	949.00
318.98	941.00
319.24	921.00
319.51	908.00
319.77	893.00
320.04	905.00
320.30	906.00
320.57	887.00
320.83	882.00
321.10	889.00
321.36	914.00
321.63	882.00
321.89	894.00
322.16	949.00
322.42	935.00
322.69	890.00
322.95	881.00
323.22	931.00
323.48	940.00
323.75	875.00
324.01	910.00
324.28	915.00
324.54	934.00
324.80	908.00
325.07	908.00
325.33	931.00
325.60	900.00
325.86	873.00
326.13	886.00
326.39	912.00
326.66	887.00
326.92	852.00
327.19	898.00
327.45	941.00
327.72	945.00
327.98	892.00
328.25	890.00
328.51	916.00
328.78	927.00
329.04	886.00
329.31	910.00
329.57	930.00
329.84	905.00
330.10	884.00
330.37	909.00
330.63	935.00
330.89	973.00
331.16	902.00
331.42	889.00
331.69	937.00
331.95	918.00
332.22	899.00
332.48	941.00
332.75	928.00
333.01	892.00
333.28	885.00
333.54	901.00
333.81	925.00
334.07	944.00
334.34	899.00
334.60	905.00
334.86	956.00
335.13	962.00
335.39	912.00
335.66	904.00
335.92	928.00
336.19	934.00
336.45	854.00
336.72	894.00
336.98	907.00
337.24	922.00
337.51	882.00
337.77	903.00
338.04	920.00
338.30	928.00
338.57	899.00
338.83	919.00
339.10	927.00
339.36	918.00
339.63	897.00
339.89	867.00
340.15	901.00
340.42	943.00
340.68	916.00
340.95	917.00
341.21	911.00
341.48	913.00
341.74	853.00
342.00	881.00
342.27	949.00
342.53	928.00
342.80	883.00
343.06	900.00
343.33	919.00
343.59	933.00
343.85	882.00
344.12	924.00
344.38	983.00
344.65	961.00
344.91	899.00
345.18	897.00
345.44	912.00
345.70	894.00
345.97	864.00
346.23	905.00
346.50	944.00
346.76	919.00
347.03	911.00
347.29	900.00
347.55	911.00
347.82	911.00
348.08	867.00
348.35	882.00
348.61	955.00
348.87	941.00
349.14	887.00
349.40	879.00
349.67	927.00
349.93	935.00
350.20	908.00
350.46	899.00
350.72	927.00
350.99	910.00
351.25	896.00
351.52	895.00
351.78	895.00
352.04	916.00
352.31	917.00
352.57	916.00
352.84	889.00
353.10	898.00
353.36	902.00
353.63	886.00
353.89	899.00
354.16	922.00
354.42	900.00
354.68	901.00
354.95	951.00
355.21	937.00
355.48	873.00
355.74	916.00
356.00	958.00
356.27	963.00
356.53	886.00
356.80	899.00
357.06	929.00
357.32	951.00
357.59	926.00
357.85	915.00
358.11	951.00
358.38	939.00
358.64	913.00
358.91	909.00
359.17	924.00
359.43	928.00
359.70	900.00
359.96	914.00
360.22	941.00
360.49	920.00
360.75	895.00
361.02	880.00
361.28	913.00
361.54	932.00
361.81	881.00
362.07	897.00
362.33	902.00
362.60	893.00
362.86	892.00
363.13	922.00
363.39	937.00
363.65	957.00
363.92	859.00
364.18	853.00
364.44	917.00
364.71	929.00
364.97	881.00
365.24	886.00
365.50	931.00
365.76	951.00
366.03	906.00
366.29	919.00
366.55	929.00
366.82	912.00
367.08	872.00
367.34	892.00
367.61	932.00
367.87	927.00
368.13	911.00
368.40	918.00
368.66	974.00
368.93	936.00
369.19	864.00
369.45	886.00
369.72	919.00
369.98	914.00
370.24	887.00
370.51	886.00
370.77	938.00
371.03	917.00
371.30	911.00
371.56	935.00
371.82	946.00
372.09	917.00
372.35	907.00
372.61	917.00
372.88	933.00
373.14	926.00
373.40	899.00
373.67	904.00
373.93	929.00
374.19	950.00
374.46	889.00
374.72	884.00
374.98	921.00
375.25	922.00
375.51	908.00
375.77	911.00
376.04	927.00
376.30	923.00
376.56	874.00
376.83	890.00
377.09	932.00
377.35	929.00
377.62	908.00
377.88	898.00
378.14	893.00
378.41	922.00
378.67	898.00
378.93	890.00
379.20	939.00
379.46	894.00
379.72	872.00
379.99	870.00
380.25	891.00
380.51	882.00
380.77	884.00
381.04	905.00
381.30	932.00
381.56	941.00
381.83	902.00
382.09	896.00
382.35	913.00
382.62	941.00
382.88	903.00
383.14	895.00
383.41	910.00
383.67	920.00
383.93	909.00
384.20	895.00
384.46	904.00
384.72	933.00
384.98	880.00
385.25	915.00
385.51	932.00
385.77	915.00
386.04	879.00
386.30	869.00
386.56	932.00
386.82	974.00
387.09	909.00
387.35	918.00
387.61	993.00
387.88	946.00
388.14	910.00
388.40	909.00
388.67	914.00
388.93	910.00
389.19	897.00
389.45	894.00
389.72	918.00
389.98	941.00
390.24	889.00
390.51	897.00
390.77	940.00
391.03	947.00
391.29	896.00
391.56	906.00
391.82	939.00
392.08	966.00
392.35	901.00
392.61	895.00
392.87	919.00
393.13	936.00
393.40	885.00
393.66	888.00
393.92	911.00
394.18	928.00
394.45	882.00
394.71	893.00
394.97	902.00
395.24	879.00
395.50	874.00
395.76	906.00
396.02	948.00
396.29	930.00
396.55	868.00
396.81	843.00
397.07	896.00
397.34	885.00
397.60	872.00
397.86	881.00
398.12	884.00
398.39	945.00
398.65	906.00
398.91	889.00
399.17	910.00
399.44	853.00
399.70	833.00
399.96	869.00
400.22	910.00
400.49	935.00
400.75	894.00
401.01	904.00
401.27	906.00
401.54	935.00
401.80	890.00
402.06	875.00
402.32	909.00
402.59	913.00
402.85	876.00
403.11	892.00
403.37	896.00
403.64	925.00
403.90	895.00
404.16	892.00
404.42	916.00
404.69	913.00
404.95	880.00
405.21	847.00
405.47	897.00
405.74	940.00
406.00	906.00
406.26	883.00
406.52	911.00
406.79	953.00
407.05	891.00
407.31	895.00
407.57	892.00
407.83	939.00
408.10	859.00
408.36	865.00
408.62	900.00
408.88	910.00
409.15	882.00
409.41	848.00
409.67	873.00
409.93	934.00
410.20	905.00
410.46	896.00
410.72	895.00
410.98	902.00
411.24	892.00
411.51	893.00
411.77	904.00
412.03	925.00
412.29	914.00
412.55	925.00
412.82	905.00
413.08	932.00
413.34	913.00
413.60	902.00
413.87	884.00
414.13	915.00
414.39	872.00
414.65	889.00
414.91	922.00
415.18	882.00
415.44	869.00
415.70	869.00
415.96	894.00
416.22	899.00
416.49	878.00
416.75	880.00
417.01	912.00
417.27	914.00
417.53	892.00
417.80	901.00
418.06	914.00
418.32	932.00
418.58	859.00
418.84	868.00
419.11	921.00
419.37	928.00
419.63	882.00
419.89	892.00
420.15	905.00
420.42	914.00
420.68	868.00
420.94	894.00
421.20	896.00
421.46	907.00
421.72	891.00
421.99	897.00
422.25	918.00
422.51	930.00
422.77	896.00
423.03	902.00
423.30	901.00
423.56	936.00
423.82	919.00
424.08	903.00
424.34	918.00
424.60	926.00
424.87	890.00
425.13	878.00
425.39	888.00
425.65	905.00
425.91	880.00
426.18	895.00
426.44	881.00
426.70	871.00
426.96	846.00
427.22	853.00
427.48	868.00
427.75	891.00
428.01	873.00
428.27	898.00
428.53	944.00
428.79	900.00
429.05	868.00
429.32	889.00
429.58	928.00
429.84	887.00
430.10	911.00
430.36	930.00
430.62	937.00
430.88	931.00
431.15	900.00
431.41	909.00
431.67	906.00
431.93	885.00
432.19	860.00
432.45	882.00
432.72	898.00
432.98	909.00
433.24	909.00
433.50	997.00
433.76	909.00
434.02	880.00
434.28	860.00
434.55	901.00
434.81	923.00
435.07	913.00
435.33	860.00
435.59	868.00
435.85	902.00
436.11	931.00
436.38	876.00
436.64	886.00
436.90	914.00
437.16	901.00
437.42	892.00
437.68	898.00
437.94	934.00
438.21	917.00
438.47	899.00
438.73	892.00
438.99	908.00
439.25	918.00
439.51	869.00
439.77	877.00
440.03	889.00
440.30	914.00
440.56	897.00
440.82	942.00
441.08	945.00
441.34	913.00
441.60	868.00
441.86	912.00
442.12	932.00
442.39	912.00
442.65	882.00
442.91	884.00
443.17	901.00
443.43	923.00
443.69	902.00
443.95	890.00
444.21	888.00
444.47	928.00
444.74	873.00
445.00	887.00
445.26	886.00
445.52	910.00
445.78	899.00
446.04	898.00
446.30	944.00
446.56	927.00
446.82	879.00
447.09	884.00
447.35	920.00
447.61	905.00
447.87	894.00
448.13	892.00
448.39	937.00
448.65	937.00
448.91	884.00
449.17	897.00
449.43	900.00
449.70	911.00
449.96	868.00
450.22	870.00
450.48	897.00
450.74	945.00
451.00	889.00
451.26	911.00
451.52	909.00
451.78	891.00
452.04	867.00
452.31	891.00
452.57	906.00
452.83	897.00
453.09	880.00
453.35	875.00
453.61	903.00
453.87	901.00
454.13	899.00
454.39	899.00
454.65	958.00
454.91	946.00
455.17	883.00
455.44	898.00
455.70	933.00
455.96	915.00
456.22	870.00
456.48	878.00
456.74	893.00
457.00	858.00
457.26	826.00
457.52	885.00
457.78	892.00
458.04	921.00
458.30	873.00
458.56	887.00
458.82	897.00
459.09	887.00
459.35	851.00
459.61	872.00
459.87	911.00
460.13	932.00
460.39	885.00
460.65	883.00
460.91	932.00
461.17	900.00
461.43	845.00
461.69	879.00
461.95	914.00
462.21	890.00
462.47	894.00
462.73	920.00
462.99	945.00
463.26	925.00
463.52	860.00
463.78	862.00
464.04	873.00
464.30	891.00
464.56	861.00
464.82	876.00
465.08	926.00
465.34	938.00
465.60	900.00
465.86	889.00
466.12	889.00
466.38	883.00
466.64	868.00
466.90	886.00
467.16	912.00
467.42	919.00
467.68	876.00
467.94	887.00
468.20	929.00
468.46	918.00
468.72	865.00
468.98	894.00
469.25	909.00
469.51	872.00
469.77	878.00
470.03	874.00
470.29	905.00
470.55	923.00
470.81	897.00
471.07	895.00
471.33	908.00
471.59	920.00
471.85	870.00
472.11	897.00
472.37	910.00
472.63	892.00
472.89	891.00
473.15	888.00
473.41	906.00
473.67	879.00
473.93	849.00
474.19	849.00
474.45	861.00
474.71	891.00
474.97	873.00
475.23	877.00
475.49	890.00
475.75	895.00
476.01	891.00
476.27	916.00
476.53	941.00
476.79	929.00
477.05	890.00
477.31	882.00
477.57	917.00
477.83	916.00
478.09	860.00
478.35	884.00
478.61	930.00
478.87	915.00
479.13	860.00
479.39	899.00
479.65	930.00
479.91	938.00
480.17	893.00
480.43	897.00
480.69	897.00
480.95	911.00
481.21	880.00
481.47	902.00
481.73	908.00
481.99	908.00
482.25	878.00
482.51	874.00
482.77	937.00
483.03	914.00
483.29	906.00
483.55	904.00
483.81	929.00
484.07	925.00
484.33	873.00
484.59	892.00
484.85	925.00
485.11	913.00
485.37	883.00
485.63	875.00
485.89	883.00
486.15	863.00
486.41	862.00
486.67	897.00
486.93	905.00
487.19	893.00
487.45	872.00
487.71	882.00
487.97	928.00
488.23	928.00
488.49	875.00
488.75	853.00
489.01	888.00
489.27	927.00
489.53	888.00
489.79	881.00
490.05	892.00
490.31	914.00
490.57	914.00
490.83	928.00
491.08	903.00
491.34	878.00
491.60	861.00
491.86	902.00
492.12	954.00
492.38	946.00
492.64	884.00
492.90	875.00
493.16	927.00
493.42	905.00
493.68	868.00
493.94	903.00
494.20	887.00
494.46	890.00
494.72	882.00
494.98	888.00
495.24	900.00
495.50	892.00
495.76	902.00
496.02	914.00
496.28	904.00
496.54	920.00
496.80	886.00
497.05	861.00
497.31	918.00
497.57	912.00
497.83	867.00
498.09	891.00
498.35	933.00
498.61	928.00
498.87	915.00
499.13	895.00
499.39	916.00
499.65	915.00
499.91	890.00
500.17	874.00
500.43	968.00
500.69	986.00
500.95	869.00
501.20	906.00
501.46	919.00
501.72	927.00
501.98	909.00
502.24	904.00
502.50	932.00
502.76	899.00
503.02	889.00
503.28	888.00
503.54	941.00
503.80	945.00
504.06	909.00
504.32	905.00
504.58	903.00
504.83	895.00
505.09	858.00
505.35	906.00
505.61	888.00
505.87	902.00
506.13	892.00
506.39	884.00
506.65	920.00
506.91	944.00
507.17	884.00
507.43	874.00
507.68	895.00
507.94	913.00
508.20	886.00
508.46	865.00
508.72	911.00
508.98	927.00
509.24	885.00
509.50	912.00
509.76	890.00
510.02	912.00
510.28	876.00
510.53	880.00
510.79	908.00
511.05	909.00
511.31	878.00
511.57	890.00
511.83	915.00
512.09	936.00
512.35	881.00
512.61	896.00
512.87	906.00
513.12	923.00
513.38	877.00
513.64	893.00
513.90	903.00
514.16	927.00
514.42	892.00
514.68	914.00
514.94	948.00
515.20	919.00
515.45	879.00
515.71	881.00
515.97	919.00
516.23	900.00
516.49	877.00
516.75	888.00
517.01	914.00
517.27	905.00
517.53	862.00
517.78	865.00
518.04	896.00
518.30	906.00
518.56	881.00
518.82	913.00
519.08	940.00
519.34	892.00
519.60	870.00
519.85	899.00
520.11	898.00
520.37	894.00
520.63	896.00
520.89	917.00
521.15	898.00
521.41	898.00
521.66	874.00
521.92	893.00
522.18	924.00
522.44	914.00
522.70	886.00
522.96	866.00
523.22	925.00
523.48	905.00
523.73	886.00
523.99	883.00
524.25	938.00
524.51	918.00
524.77	882.00
525.03	885.00
525.29	907.00
525.54	908.00
525.80	880.00
526.06	881.00
526.32	877.00
526.58	883.00
526.84	869.00
527.09	873.00
527.35	876.00
527.61	888.00
527.87	879.00
528.13	902.00
528.39	904.00
528.65	900.00
528.90	844.00
529.16	864.00
529.42	875.00
529.68	899.00
529.94	872.00
530.20	874.00
530.45	884.00
530.71	904.00
530.97	880.00
531.23	891.00
531.49	897.00
531.75	903.00
532.00	892.00
532.26	882.00
532.52	911.00
532.78	901.00
533.04	877.00
533.30	889.00
533.55	900.00
533.81	890.00
534.07	855.00
534.33	885.00
534.59	906.00
534.85	925.00
535.10	878.00
535.36	872.00
535.62	908.00
535.88	901.00
536.14	852.00
536.39	870.00
536.65	922.00
536.91	926.00
537.17	857.00
537.43	874.00
537.69	925.00
537.94	918.00
538.20	856.00
538.46	889.00
538.72	900.00
538.98	913.00
539.23	862.00
539.49	856.00
539.75	917.00
540.01	908.00
540.27	878.00
540.52	936.00
540.78	939.00
541.04	931.00
541.30	851.00
541.56	852.00
541.81	938.00
542.07	999.00
542.33	902.00
542.59	881.00
542.85	880.00
543.10	900.00
543.36	863.00
543.62	889.00
543.88	896.00
544.14	906.00
544.39	883.00
544.65	888.00
544.91	936.00
545.17	912.00
545.43	871.00
545.68	868.00
545.94	910.00
546.20	919.00
546.46	889.00
546.71	882.00
546.97	904.00
547.23	913.00
547.49	880.00
547.75	880.00
548.00	914.00
548.26	931.00
548.52	870.00
548.78	868.00
549.03	882.00
549.29	891.00
549.55	853.00
549.81	874.00
550.07	908.00
550.32	918.00
550.58	862.00
550.84	899.00
551.10	891.00
551.35	891.00
551.61	877.00
551.87	881.00
552.13	901.00
552.39	894.00
552.64	851.00
552.90	865.00
553.16	902.00
553.42	883.00
553.67	874.00
553.93	881.00
554.19	926.00
554.45	918.00
554.70	872.00
554.96	854.00
555.22	897.00
555.48	923.00
555.73	884.00
555.99	891.00
556.25	925.00
556.51	906.00
556.76	875.00
557.02	899.00
557.28	915.00
557.54	893.00
557.79	851.00
558.05	886.00
558.31	880.00
558.57	919.00
558.82	886.00
559.08	858.00
559.34	867.00
559.60	897.00
559.85	892.00
560.11	883.00
560.37	891.00
560.63	890.00
560.88	857.00
561.14	861.00
561.40	903.00
561.66	885.00
561.91	883.00
562.17	881.00
562.43	905.00
562.68	917.00
562.94	913.00
563.20	904.00
563.46	930.00
563.71	935.00
563.97	874.00
564.23	894.00
564.49	921.00
564.74	903.00
565.00	873.00
565.26	888.00
565.51	905.00
565.77	880.00
566.03	868.00
566.29	881.00
566.54	872.00
566.80	882.00
567.06	878.00
567.31	901.00
567.57	923.00
567.83	880.00
568.09	878.00
568.34	877.00
568.60	900.00
568.86	927.00
569.11	884.00
569.37	866.00
569.63	911.00
569.89	918.00
570.14	831.00
570.40	862.00
570.66	895.00
570.91	900.00
571.17	859.00
571.43	900.00
571.69	916.00
571.94	911.00
572.20	859.00
572.46	888.00
572.71	916.00
572.97	901.00
573.23	872.00
573.48	884.00
573.74	894.00
574.00	914.00
574.26	868.00
574.51	872.00
574.77	923.00
575.03	892.00
575.28	866.00
575.54	871.00
575.80	890.00
576.05	903.00
576.31	857.00
576.57	868.00
576.82	901.00
577.08	898.00
577.34	850.00
577.59	882.00
577.85	926.00
578.11	877.00
578.37	858.00
578.62	868.00
578.88	912.00
579.14	910.00
579.39	885.00
579.65	899.00
579.91	909.00
580.16	901.00
580.42	885.00
580.68	875.00
580.93	912.00
581.19	886.00
581.45	845.00
581.70	891.00
581.96	901.00
582.22	904.00
582.47	885.00
582.73	900.00
582.99	926.00
583.24	905.00
583.50	869.00
583.76	865.00
584.01	887.00
584.27	919.00
584.53	891.00
584.78	907.00
585.04	891.00
585.30	901.00
585.55	876.00
585.81	860.00
586.07	918.00
586.32	929.00
586.58	876.00
586.83	890.00
587.09	899.00
587.35	910.00
587.60	872.00
587.86	870.00
588.12	883.00
588.37	910.00
588.63	872.00
588.89	897.00
589.14	925.00
589.40	910.00
589.66	883.00
589.91	876.00
590.17	902.00
590.43	854.00
590.68	846.00
590.94	879.00
591.19	905.00
591.45	899.00
591.71	868.00
591.96	871.00
592.22	893.00
592.48	901.00
592.73	871.00
592.99	871.00
593.25	902.00
593.50	914.00
593.76	859.00
594.01	880.00
594.27	908.00
594.53	903.00
594.78	847.00
595.04	879.00
595.30	897.00
595.55	884.00
595.81	846.00
596.06	896.00
596.32	932.00
596.58	908.00
596.83	871.00
597.09	900.00
597.35	907.00
597.60	870.00
597.86	856.00
598.11	873.00
598.37	921.00
598.63	896.00
598.88	881.00
599.14	872.00
599.39	912.00
599.65	884.00
599.91	836.00
600.16	869.00
600.42	910.00
600.67	902.00
600.93	863.00
601.19	889.00
601.44	926.00
601.70	922.00
601.95	882.00
602.21	894.00
602.47	874.00
602.72	899.00
602.98	881.00
603.23	889.00
603.49	920.00
603.75	922.00
604.00	880.00
604.26	882.00
604.51	887.00
604.77	924.00
605.03	869.00
605.28	870.00
605.54	933.00
605.79	970.00
606.05	858.00
606.31	862.00
606.56	910.00
606.82	917.00
607.07	879.00
607.33	914.00
607.59	934.00
607.84	895.00
608.10	854.00
608.35	887.00
608.61	909.00
608.86	910.00
609.12	872.00
609.38	912.00
609.63	938.00
609.89	912.00
610.14	849.00
610.40	878.00
610.65	906.00
610.91	887.00
611.17	872.00
611.42	865.00
611.68	916.00
611.93	908.00
612.19	893.00
612.44	899.00
612.70	915.00
612.96	896.00
613.21	868.00
613.47	853.00
613.72	892.00
613.98	907.00
614.23	866.00
614.49	891.00
614.75	913.00
615.00	907.00
615.26	878.00
615.51	872.00
615.77	907.00
616.02	919.00
616.28	880.00
616.53	894.00
616.79	905.00
617.05	892.00
617.30	873.00
617.56	889.00
617.81	917.00
618.07	912.00
618.32	882.00
618.58	894.00
618.83	920.00
619.09	924.00
619.34	891.00
619.60	876.00
619.86	917.00
620.11	931.00
620.37	900.00
620.62	902.00
620.88	922.00
621.13	926.00
621.39	889.00
621.64	909.00
621.90	947.00
622.15	929.00
622.41	898.00
622.66	907.00
622.92	936.00
623.18	935.00
623.43	880.00
623.69	906.00
623.94	944.00
624.20	956.00
624.45	916.00
624.71	947.00
624.96	957.00
625.22	984.00
625.47	954.00
625.73	949.00
625.98	988.00
626.24	978.00
626.49	940.00
626.75	974.00
627.00	1017.00
627.26	1015.00
627.51	986.00
627.77	1012.00
628.02	1018.00
628.28	1015.00
628.53	991.00
628.79	1042.00
629.05	1062.00
629.30	1055.00
629.56	1044.00
629.81	1068.00
630.07	1091.00
630.32	1117.00
630.58	1098.00
630.83	1112.00
631.09	1135.00
631.34	1128.00
631.60	1098.00
631.85	1121.00
632.11	1162.00
632.36	1170.00
632.62	1158.00
632.87	1195.00
633.13	1258.00
633.38	1279.00
633.64	1270.00
633.89	1295.00
634.15	1365.00
634.40	1455.00
634.66	1422.00
634.91	1367.00
635.17	1386.00
635.42	1456.00
635.68	1422.00
635.93	1378.00
636.18	1410.00
636.44	1452.00
636.69	1439.00
636.95	1462.00
637.20	1494.00
637.46	1487.00
637.71	1392.00
637.97	1432.00
638.22	1457.00
638.48	1412.00
638.73	1401.00
638.99	1393.00
639.24	1406.00
639.50	1397.00
639.75	1257.00
640.01	1226.00
640.26	1252.00
640.52	1229.00
640.77	1156.00
641.03	1160.00
641.28	1150.00
641.54	1111.00
641.79	1100.00
642.04	1130.00
642.30	1110.00
642.55	1090.00
642.81	1065.00
643.06	1061.00
643.32	1093.00
643.57	1083.00
643.83	1005.00
644.08	979.00
644.34	981.00
644.59	1009.00
644.85	973.00
645.10	982.00
645.35	991.00
645.61	978.00
645.86	942.00
646.12	954.00
646.37	991.00
646.63	986.00
646.88	914.00
647.14	935.00
647.39	945.00
647.65	980.00
647.90	928.00
648.15	937.00
648.41	941.00
648.66	943.00
648.92	886.00
649.17	904.00
649.43	927.00
649.68	925.00
649.94	910.00
650.19	891.00
650.44	921.00
650.70	901.00
650.95	869.00
651.21	890.00
651.46	925.00
651.72	925.00
651.97	903.00
652.23	891.00
652.48	918.00
652.73	901.00
652.99	873.00
653.24	896.00
653.50	902.00
653.75	897.00
654.01	880.00
654.26	888.00
654.51	902.00
654.77	915.00
655.02	887.00
655.28	864.00
655.53	890.00
655.79	897.00
656.04	878.00
656.29	893.00
656.55	905.00
656.80	912.00
657.06	851.00
657.31	876.00
657.56	895.00
657.82	884.00
658.07	882.00
658.33	890.00
658.58	910.00
658.84	929.00
659.09	894.00
659.34	887.00
659.60	900.00
659.85	897.00
660.11	868.00
660.36	888.00
660.61	880.00
660.87	876.00
661.12	854.00
661.38	877.00
661.63	904.00
661.88	922.00
662.14	903.00
662.39	890.00
662.65	934.00
662.90	940.00
663.15	874.00
663.41	885.00
663.66	919.00
663.92	939.00
664.17	877.00
664.42	887.00
664.68	911.00
664.93	904.00
665.19	871.00
665.44	869.00
665.69	886.00
665.95	900.00
666.20	859.00
666.45	908.00
666.71	901.00
666.96	895.00
667.22	841.00
667.47	866.00
667.72	876.00
667.98	906.00
668.23	862.00
668.49	907.00
668.74	926.00
668.99	923.00
669.25	854.00
669.50	861.00
669.75	898.00
670.01	890.00
670.26	836.00
670.52	870.00
670.77	909.00
671.02	896.00
671.28	850.00
671.53	866.00
671.78	904.00
672.04	908.00
672.29	873.00
672.54	857.00
672.80	892.00
673.05	891.00
673.31	863.00
673.56	908.00
673.81	923.00
674.07	903.00
674.32	879.00
674.57	869.00
674.83	882.00
675.08	897.00
675.33	883.00
675.59	895.00
675.84	914.00
676.09	884.00
676.35	888.00
676.60	897.00
676.86	881.00
677.11	902.00
677.36	872.00
677.62	890.00
677.87	926.00
678.12	937.00
678.38	872.00
678.63	874.00
678.88	920.00
679.14	918.00
679.39	850.00
679.64	882.00
679.90	886.00
680.15	895.00
680.40	889.00
680.66	878.00
680.91	903.00
681.16	886.00
681.42	885.00
681.67	875.00
681.92	887.00
682.18	932.00
682.43	863.00
682.68	875.00
682.94	897.00
683.19	885.00
683.44	865.00
683.70	899.00
683.95	912.00
684.20	906.00
684.46	892.00
684.71	901.00
684.96	894.00
685.22	909.00
685.47	876.00
685.72	903.00
685.98	920.00
686.23	852.00
686.48	861.00
686.74	910.00
686.99	920.00
687.24	905.00
687.50	856.00
687.75	866.00
688.00	885.00
688.25	907.00
688.51	894.00
688.76	908.00
689.01	882.00
689.27	863.00
689.52	846.00
689.77	893.00
690.03	871.00
690.28	876.00
690.53	876.00
690.79	897.00
691.04	896.00
691.29	904.00
691.54	849.00
691.80	882.00
692.05	891.00
692.30	887.00
692.56	865.00
692.81	876.00
693.06	869.00
693.32	873.00
693.57	869.00
693.82	890.00
694.07	909.00
694.33	897.00
694.58	881.00
694.83	900.00
695.09	882.00
695.34	905.00
695.59	876.00
695.84	892.00
696.10	922.00
696.35	911.00
696.60	856.00
696.86	869.00
697.11	872.00
697.36	895.00
697.61	854.00
697.87	882.00
698.12	885.00
698.37	885.00
698.63	892.00
698.88	868.00
699.13	886.00
699.38	882.00
699.64	855.00
699.89	872.00
700.14	872.00
700.39	872.00
700.65	883.00
700.90	909.00
701.15	900.00
701.40	904.00
701.66	874.00
701.91	890.00
702.16	897.00
702.42	878.00
702.67	846.00
702.92	862.00
703.17	882.00
703.43	894.00
703.68	882.00
703.93	896.00
704.18	937.00
704.44	894.00
704.69	877.00
704.94	898.00
705.19	886.00
705.45	926.00
705.70	884.00
705.95	869.00
706.20	888.00
706.46	924.00
706.71	881.00
706.96	862.00
707.21	882.00
707.47	894.00
707.72	875.00
707.97	892.00
708.22	920.00
708.48	924.00
708.73	863.00
708.98	868.00
709.23	885.00
709.49	882.00
709.74	865.00
709.99	868.00
710.24	882.00
710.50	890.00
710.75	894.00
711.00	895.00
711.25	919.00
711.50	903.00
711.76	844.00
712.01	856.00
712.26	864.00
712.51	901.00
712.77	868.00
713.02	878.00
713.27	885.00
713.52	900.00
713.78	887.00
714.03	895.00
714.28	882.00
714.53	906.00
714.78	876.00
715.04	878.00
715.29	877.00
715.54	912.00
715.79	873.00
716.05	896.00
716.30	913.00
716.55	911.00
716.80	879.00
717.05	901.00
717.31	912.00
717.56	915.00
717.81	892.00
718.06	868.00
718.31	866.00
718.57	891.00
718.82	877.00
719.07	902.00
719.32	893.00
719.57	905.00
719.83	865.00
720.08	897.00
720.33	881.00
720.58	866.00
720.83	840.00
721.09	913.00
721.34	907.00
721.59	922.00
721.84	874.00
722.09	883.00
722.35	898.00
722.60	891.00
722.85	857.00
723.10	897.00
723.35	883.00
723.61	906.00
723.86	916.00
724.11	898.00
724.36	894.00
724.61	878.00
724.87	883.00
725.12	870.00
725.37	887.00
725.62	883.00
725.87	858.00
726.12	862.00
726.38	884.00
726.63	897.00
726.88	869.00
727.13	885.00
727.38	881.00
727.64	900.00
727.89	868.00
728.14	880.00
728.39	872.00
728.64	905.00
728.89	885.00
729.15	897.00
729.40	904.00
729.65	904.00
729.90	869.00
730.15	891.00
730.40	915.00
730.66	889.00
730.91	848.00
731.16	877.00
731.41	874.00
731.66	884.00
731.91	869.00
732.17	893.00
732.42	907.00
732.67	896.00
732.92	866.00
733.17	889.00
733.42	902.00
733.68	899.00
733.93	870.00
734.18	890.00
734.43	874.00
734.68	891.00
734.93	869.00
735.18	879.00
735.44	893.00
735.69	897.00
735.94	836.00
736.19	868.00
736.44	880.00
736.69	934.00
736.95	873.00
737.20	901.00
737.45	906.00
737.70	901.00
737.95	892.00
738.20	912.00
738.45	920.00
738.70	903.00
738.96	884.00
739.21	897.00
739.46	894.00
739.71	908.00
739.96	866.00
740.21	900.00
740.46	961.00
740.72	922.00
740.97	872.00
741.22	898.00
741.47	867.00
741.72	889.00
741.97	854.00
742.22	883.00
742.47	906.00
742.73	893.00
742.98	872.00
743.23	873.00
743.48	877.00
743.73	890.00
743.98	892.00
744.23	869.00
744.48	901.00
744.74	885.00
744.99	859.00
745.24	885.00
745.49	873.00
745.74	914.00
745.99	881.00
746.24	894.00
746.49	881.00
746.74	867.00
747.00	883.00
747.25	892.00
747.50	850.00
747.75	870.00
748.00	841.00
748.25	866.00
748.50	893.00
748.75	911.00
749.00	904.00
749.26	935.00
749.51	899.00
749.76	915.00
750.01	872.00
750.26	905.00
750.51	918.00
750.76	915.00
751.01	870.00
751.26	878.00
751.51	892.00
751.77	912.00
752.02	885.00
752.27	889.00
752.52	906.00
752.77	912.00
753.02	874.00
753.27	890.00
753.52	883.00
753.77	889.00
754.02	874.00
754.27	878.00
754.52	874.00
754.78	876.00
755.03	850.00
755.28	892.00
755.53	900.00
755.78	892.00
756.03	868.00
756.28	902.00
756.53	897.00
756.78	889.00
757.03	876.00
757.28	892.00
757.53	897.00
757.79	877.00
758.04	846.00
758.29	910.00
758.54	921.00
758.79	910.00
759.04	855.00
759.29	868.00
759.54	869.00
759.79	882.00
760.04	869.00
760.29	871.00
760.54	869.00
760.79	871.00
761.04	865.00
761.29	882.00
761.55	878.00
761.80	870.00
762.05	858.00
762.30	896.00
762.55	879.00
762.80	906.00
763.05	894.00
763.30	905.00
763.55	932.00
763.80	906.00
764.05	851.00
764.30	891.00
764.55	907.00
764.80	900.00
765.05	858.00
765.30	896.00
765.55	883.00
765.80	891.00
766.05	854.00
766.30	891.00
766.56	886.00
766.81	902.00
767.06	892.00
767.31	892.00
767.56	891.00
767.81	880.00
768.06	880.00
768.31	906.00
768.56	891.00
768.81	928.00
769.06	871.00
769.31	878.00
769.56	878.00
769.81	916.00
770.06	857.00
770.31	871.00
770.56	886.00
770.81	877.00
771.06	850.00
771.31	877.00
771.56	888.00
771.81	900.00
772.06	868.00
772.31	895.00
772.56	887.00
772.81	916.00
773.06	858.00
773.31	899.00
773.56	889.00
773.81	855.00
774.06	828.00
774.31	852.00
774.56	873.00
774.81	927.00
775.06	890.00
775.31	902.00
775.56	916.00
775.81	881.00
776.06	842.00
776.31	874.00
776.56	874.00
776.82	895.00
777.07	858.00
777.32	874.00
777.57	886.00
777.82	929.00
778.07	876.00
778.32	877.00
778.57	897.00
778.82	919.00
779.07	888.00
779.32	885.00
779.57	865.00
779.82	892.00
780.07	880.00
780.32	896.00
780.56	891.00
780.81	928.00
781.06	848.00
781.31	876.00
781.56	909.00
781.81	905.00
782.06	877.00
782.31	906.00
782.56	893.00
782.81	914.00
783.06	873.00
783.31	890.00
783.56	870.00
783.81	924.00
784.06	874.00
784.31	887.00
784.56	872.00
784.81	954.00
785.06	897.00
785.31	900.00
785.56	860.00
785.81	875.00
786.06	839.00
786.31	874.00
786.56	875.00
786.81	880.00
787.06	880.00
787.31	899.00
787.56	872.00
787.81	877.00
788.06	853.00
788.31	878.00
788.56	880.00
788.81	924.00
789.06	876.00
789.31	876.00
789.56	900.00
789.81	903.00
790.06	864.00
790.31	907.00
790.56	891.00
790.80	881.00
791.05	861.00
791.30	859.00
791.55	868.00
791.80	888.00
792.05	873.00
792.30	863.00
792.55	864.00
792.80	891.00
793.05	843.00
793.30	857.00
793.55	878.00
793.80	894.00
794.05	850.00
794.30	865.00
794.55	880.00
794.80	901.00
795.05	845.00
795.30	871.00
795.54	867.00
795.79	910.00
796.04	868.00
796.29	905.00
796.54	877.00
796.79	901.00
797.04	876.00
797.29	877.00
797.54	901.00
797.79	896.00
798.04	865.00
798.29	868.00
798.54	869.00
798.79	893.00
799.04	868.00
799.29	886.00
799.53	876.00
799.78	879.00
800.03	861.00
800.28	851.00
800.53	868.00
800.78	924.00
801.03	876.00
801.28	886.00
801.53	894.00
801.78	902.00
802.03	869.00
802.28	889.00
802.52	910.00
802.77	933.00
803.02	900.00
803.27	901.00
803.52	862.00
803.77	894.00
804.02	893.00
804.27	902.00
804.52	900.00
804.77	923.00
805.02	870.00
805.27	890.00
805.51	890.00
805.76	908.00
806.01	865.00
806.26	880.00
806.51	888.00
806.76	930.00
807.01	885.00
807.26	857.00
807.51	903.00
807.76	886.00
808.00	863.00
808.25	874.00
808.50	915.00
808.75	887.00
809.00	864.00
809.25	894.00
809.50	884.00
809.75	909.00
810.00	875.00
810.24	872.00
810.49	845.00
810.74	872.00
810.99	866.00
811.24	886.00
811.49	886.00
811.74	899.00
811.99	841.00
812.24	885.00
812.48	875.00
812.73	873.00
812.98	847.00
813.23	857.00
813.48	883.00
813.73	878.00
813.98	826.00
814.23	875.00
814.47	869.00
814.72	875.00
814.97	845.00
815.22	882.00
815.47	861.00
815.72	888.00
815.97	848.00
816.22	869.00
816.46	884.00
816.71	906.00
816.96	874.00
817.21	897.00
817.46	877.00
817.71	884.00
817.96	861.00
818.20	864.00
818.45	870.00
818.70	895.00
818.95	854.00
819.20	870.00
819.45	872.00
819.70	894.00
819.94	856.00
820.19	881.00
820.44	880.00
820.69	922.00
820.94	879.00
821.19	888.00
821.44	949.00
821.68	950.00
821.93	888.00
822.18	903.00
822.43	900.00
822.68	912.00
822.93	862.00
823.17	878.00
823.42	899.00
823.67	889.00
823.92	862.00
824.17	879.00
824.42	897.00
824.67	901.00
824.91	864.00
825.16	875.00
825.41	907.00
825.66	903.00
825.91	873.00
826.16	884.00
826.40	881.00
826.65	897.00
826.90	869.00
827.15	884.00
827.40	889.00
827.65	902.00
827.89	831.00
828.14	860.00
828.39	893.00
828.64	897.00
828.89	850.00
829.13	856.00
829.38	860.00
829.63	892.00
829.88	866.00
830.13	877.00
830.38	863.00
830.62	875.00
830.87	858.00
831.12	888.00
831.37	918.00
831.62	937.00
831.86	857.00
832.11	865.00
832.36	857.00
832.61	911.00
832.86	882.00
833.10	885.00
833.35	884.00
833.60	903.00
833.85	855.00
834.10	896.00
834.35	922.00
834.59	933.00
834.84	879.00
835.09	906.00
835.34	874.00
835.59	883.00
835.83	878.00
836.08	906.00
836.33	894.00
836.58	904.00
836.83	867.00
837.07	889.00
837.32	902.00
837.57	901.00
837.82	869.00
838.06	893.00
838.31	896.00
838.56	913.00
838.81	850.00
839.06	898.00
839.30	884.00
839.55	880.00
839.80	863.00
840.05	889.00
840.30	915.00
840.54	938.00
840.79	868.00
841.04	893.00
841.29	909.00
841.53	901.00
841.78	875.00
842.03	855.00
842.28	872.00
842.53	863.00
842.77	867.00
843.02	893.00
843.27	889.00
843.52	897.00
843.76	880.00
844.01	894.00
844.26	883.00
844.51	900.00
844.75	876.00
845.00	858.00
845.25	894.00
845.50	921.00
845.75	882.00
845.99	898.00
846.24	897.00
846.49	917.00
846.74	856.00
846.98	856.00
847.23	881.00
847.48	905.00
847.73	857.00
847.97	888.00
848.22	905.00
848.47	904.00
848.72	873.00
848.96	875.00
849.21	886.00
849.46	871.00
849.71	855.00
849.95	874.00
850.20	863.00
850.45	888.00
850.70	858.00
850.94	871.00
851.19	870.00
851.44	868.00
851.69	836.00
851.93	868.00
852.18	910.00
852.43	895.00
852.68	884.00
852.92	915.00
853.17	922.00
853.42	921.00
853.66	893.00
853.91	912.00
854.16	890.00
854.41	932.00
854.65	878.00
854.90	888.00
855.15	897.00
855.40	900.00
855.64	877.00
855.89	886.00
856.14	886.00
856.39	880.00
856.63	876.00
856.88	875.00
857.13	862.00
857.37	887.00
857.62	861.00
857.87	852.00
858.12	863.00
858.36	926.00
858.61	835.00
858.86	864.00
859.10	896.00
859.35	905.00
859.60	860.00
859.85	855.00
860.09	853.00
860.34	892.00
860.59	855.00
860.83	869.00
861.08	874.00
861.33	914.00
861.58	875.00
861.82	889.00
862.07	896.00
862.32	890.00
862.56	851.00
862.81	886.00
863.06	874.00
863.30	886.00
863.55	884.00
863.80	889.00
864.05	901.00
864.29	893.00
864.54	875.00
864.79	886.00
865.03	888.00
865.28	911.00
865.53	882.00
865.77	849.00
866.02	876.00
866.27	921.00
866.51	882.00
866.76	844.00
867.01	852.00
867.26	895.00
867.50	871.00
867.75	863.00
868.00	877.00
868.24	892.00
868.49	862.00
868.74	883.00
868.98	873.00
869.23	896.00
869.48	886.00
869.72	877.00
869.97	884.00
870.22	920.00
870.46	886.00
870.71	878.00
870.96	887.00
871.20	906.00
871.45	846.00
871.70	878.00
871.94	907.00
872.19	910.00
872.44	878.00
872.68	880.00
872.93	875.00
873.18	888.00
873.42	848.00
873.67	872.00
873.92	892.00
874.16	873.00
874.41	867.00
874.66	874.00
874.90	890.00
875.15	911.00
875.40	888.00
875.64	897.00
875.89	893.00
876.14	911.00
876.38	868.00
876.63	865.00
876.88	878.00
877.12	886.00
877.37	859.00
877.62	870.00
877.86	860.00
878.11	895.00
878.36	868.00
878.60	887.00
878.85	890.00
879.09	880.00
879.34	871.00
879.59	888.00
879.83	912.00
880.08	935.00
880.33	891.00
880.57	892.00
880.82	907.00
881.07	905.00
881.31	881.00
881.56	882.00
881.80	860.00
882.05	880.00
882.30	854.00
882.54	875.00
882.79	913.00
883.04	945.00
883.28	893.00
883.53	875.00
883.77	891.00
884.02	906.00
884.27	867.00
884.51	861.00
884.76	869.00
885.01	911.00
885.25	853.00
885.50	886.00
885.74	862.00
885.99	913.00
886.24	876.00
886.48	881.00
886.73	910.00
886.98	918.00
887.22	882.00
887.47	883.00
887.71	896.00
887.96	907.00
888.21	881.00
888.45	866.00
888.70	864.00
888.94	914.00
889.19	848.00
889.44	867.00
889.68	883.00
889.93	904.00
890.17	866.00
890.42	862.00
890.67	894.00
890.91	970.00
891.16	872.00
891.40	873.00
891.65	876.00
891.90	900.00
892.14	858.00
892.39	892.00
892.63	887.00
892.88	926.00
893.13	874.00
893.37	868.00
893.62	864.00
893.86	919.00
894.11	871.00
894.36	863.00
894.60	855.00
894.85	873.00
895.09	869.00
895.34	907.00
895.59	877.00
895.83	870.00
896.08	848.00
896.32	851.00
896.57	886.00
896.81	892.00
897.06	868.00
897.31	880.00
897.55	888.00
897.80	868.00
898.04	834.00
898.29	869.00
898.53	891.00
898.78	899.00
899.03	869.00
899.27	852.00
899.52	870.00
899.76	912.00
900.01	862.00
900.25	887.00
900.50	904.00
900.75	922.00
900.99	888.00
901.24	964.00
901.48	907.00
901.73	885.00
901.97	858.00
902.22	894.00
902.47	912.00
902.71	893.00
902.96	856.00
903.20	890.00
903.45	924.00
903.69	908.00
903.94	878.00
904.18	854.00
904.43	881.00
904.68	897.00
904.92	855.00
905.17	863.00
905.41	896.00
905.66	904.00
905.90	893.00
906.15	861.00
906.39	894.00
906.64	899.00
906.88	849.00
907.13	876.00
907.38	908.00
907.62	926.00
907.87	872.00
908.11	886.00
908.36	876.00
908.60	896.00
908.85	820.00
909.09	861.00
909.34	874.00
909.58	892.00
909.83	860.00
910.07	863.00
910.32	928.00
910.56	925.00
910.81	859.00
911.06	899.00
911.30	903.00
911.55	880.00
911.79	850.00
912.04	852.00
912.28	861.00
912.53	912.00
912.77	884.00
913.02	870.00
913.26	859.00
913.51	886.00
913.75	859.00
914.00	872.00
914.24	890.00
914.49	892.00
914.73	858.00
914.98	891.00
915.22	925.00
915.47	888.00
915.71	865.00
915.96	876.00
916.20	892.00
916.45	881.00
916.69	864.00
916.94	886.00
917.18	901.00
917.43	898.00
917.67	846.00
917.92	863.00
918.16	897.00
918.41	891.00
918.65	865.00
918.90	852.00
919.14	842.00
919.39	890.00
919.63	864.00
919.88	853.00
920.12	896.00
920.37	898.00
920.61	852.00
920.86	882.00
921.10	904.00
921.35	884.00
921.59	853.00
921.84	889.00
922.08	897.00
922.33	920.00
922.57	852.00
922.82	847.00
923.06	864.00
923.31	890.00
923.55	844.00
923.80	870.00
924.04	874.00
924.29	900.00
924.53	853.00
924.78	883.00
925.02	868.00
925.27	889.00
925.51	868.00
925.76	901.00
926.00	877.00
926.25	885.00
926.49	862.00
926.73	894.00
926.98	903.00
927.22	930.00
927.47	876.00
927.71	880.00
927.96	908.00
928.20	899.00
928.45	879.00
928.69	927.00
928.94	901.00
929.18	892.00
929.43	892.00
929.67	890.00
929.91	886.00
930.16	891.00
930.40	841.00
930.65	853.00
930.89	873.00
931.14	894.00
931.38	874.00
931.63	898.00
931.87	911.00
932.12	900.00
932.36	848.00
932.60	867.00
932.85	891.00
933.09	868.00
933.34	840.00
933.58	896.00
933.83	879.00
934.07	897.00
934.32	888.00
934.56	899.00
934.80	923.00
935.05	931.00
935.29	894.00
935.54	896.00
935.78	896.00
936.03	908.00
936.27	849.00
936.52	852.00
936.76	872.00
937.00	881.00
937.25	856.00
937.49	886.00
937.74	902.00
937.98	910.00
938.23	853.00
938.47	855.00
938.71	880.00
938.96	891.00
939.20	855.00
939.45	861.00
939.69	882.00
939.94	903.00
940.18	839.00
940.42	874.00
940.67	903.00
940.91	877.00
941.16	854.00
941.40	858.00
941.64	870.00
941.89	898.00
942.13	847.00
942.38	888.00
942.62	960.00
942.87	920.00
943.11	881.00
943.35	874.00
943.60	903.00
943.84	925.00
944.09	885.00
944.33	901.00
944.57	920.00
944.82	894.00
945.06	862.00
945.31	881.00
945.55	882.00
945.79	910.00
946.04	856.00
946.28	871.00
946.53	891.00
946.77	898.00
947.01	841.00
947.26	872.00
947.50	883.00
947.75	888.00
947.99	869.00
948.23	889.00
948.48	885.00
948.72	899.00
948.97	875.00
949.21	867.00
949.45	897.00
949.70	921.00
949.94	892.00
950.18	890.00
950.43	888.00
950.67	894.00
950.92	867.00
951.16	864.00
951.40	876.00
951.65	904.00
951.89	882.00
952.13	884.00
952.38	901.00
952.62	906.00
952.87	853.00
953.11	881.00
953.35	910.00
953.60	899.00
953.84	833.00
954.08	852.00
954.33	887.00
954.57	899.00
954.82	870.00
955.06	856.00
955.30	871.00
955.55	875.00
955.79	875.00
956.03	870.00
956.28	877.00
956.52	881.00
956.76	884.00
957.01	887.00
957.25	874.00
957.50	896.00
957.74	853.00
957.98	860.00
958.23	896.00
958.47	893.00
958.71	885.00
958.96	885.00
959.20	925.00
959.44	894.00
959.69	863.00
959.93	891.00
960.17	899.00
960.42	899.00
960.66	888.00
960.90	889.00
961.15	888.00
961.39	894.00
961.64	852.00
961.88	861.00
962.12	906.00
962.37	917.00
962.61	876.00
962.85	876.00
963.10	896.00
963.34	888.00
963.58	864.00
963.83	883.00
964.07	895.00
964.31	894.00
964.56	876.00
964.80	865.00
965.04	890.00
965.29	893.00
965.53	853.00
965.77	859.00
966.02	848.00
966.26	890.00
966.50	851.00
966.74	881.00
966.99	907.00
967.23	910.00
967.47	877.00
967.72	878.00
967.96	891.00
968.20	889.00
968.45	844.00
968.69	870.00
968.93	878.00
969.18	892.00
969.42	901.00
969.66	884.00
969.91	880.00
970.15	910.00
970.39	864.00
970.64	885.00
970.88	888.00
971.12	901.00
971.36	875.00
971.61	857.00
971.85	880.00
972.09	891.00
972.34	874.00
972.58	881.00
972.82	902.00
973.07	918.00
973.31	865.00
973.55	868.00
973.79	897.00
974.04	930.00
974.28	903.00
974.52	882.00
974.77	877.00
975.01	912.00
975.25	861.00
975.50	868.00
975.74	890.00
975.98	897.00
976.22	860.00
976.47	868.00
976.71	883.00
976.95	898.00
977.20	889.00
977.44	888.00
977.68	894.00
977.92	900.00
978.17	870.00
978.41	883.00
978.65	916.00
978.90	891.00
979.14	875.00
979.38	897.00
979.62	896.00
979.87	877.00
980.11	838.00
980.35	880.00
980.59	895.00
980.84	901.00
981.08	861.00
981.32	867.00
981.57	884.00
981.81	892.00
982.05	855.00
982.29	859.00
982.54	871.00
982.78	895.00
983.02	861.00
983.26	875.00
983.51	903.00
983.75	893.00
983.99	843.00
984.23	881.00
984.48	891.00
984.72	929.00
984.96	858.00
985.20	861.00
985.45	924.00
985.69	905.00
985.93	880.00
986.17	899.00
986.42	901.00
986.66	897.00
986.90	836.00
987.14	861.00
987.39	877.00
987.63	865.00
987.87	849.00
988.11	868.00
988.36	891.00
988.60	892.00
988.84	889.00
989.08	889.00
989.33	920.00
989.57	919.00
989.81	852.00
990.05	854.00
990.30	870.00
990.54	873.00
990.78	859.00
991.02	858.00
991.27	881.00
991.51	888.00
991.75	862.00
991.99	896.00
992.23	870.00
992.48	866.00
992.72	848.00
992.96	873.00
993.20	865.00
993.45	889.00
993.69	900.00
993.93	868.00
994.17	906.00
994.41	900.00
994.66	850.00
994.90	865.00
995.14	912.00
995.38	907.00
995.63	877.00
995.87	876.00
996.11	922.00
996.35	908.00
996.59	850.00
996.84	859.00
997.08	891.00
997.32	889.00
997.56	880.00
997.80	847.00
998.05	852.00
998.29	875.00
998.53	859.00
998.77	878.00
999.01	914.00
999.26	904.00
999.50	857.00
999.74	858.00
999.98	887.00
1000.22	905.00
1000.47	857.00
1000.71	879.00
1000.95	897.00
1001.19	887.00
1001.43	868.00
1001.68	882.00
1001.92	882.00
1002.16	873.00
1002.40	849.00
1002.64	869.00
1002.89	885.00
1003.13	892.00
1003.37	872.00
1003.61	863.00
1003.85	898.00
1004.10	888.00
1004.34	859.00
1004.58	857.00
1004.82	905.00
1005.06	901.00
1005.30	860.00
1005.55	853.00
1005.79	892.00
1006.03	887.00
1006.27	867.00
1006.51	864.00
1006.76	886.00
1007.00	915.00
1007.24	864.00
1007.48	873.00
1007.72	913.00
1007.96	886.00
1008.21	864.00
1008.45	888.00
1008.69	886.00
1008.93	895.00
1009.17	881.00
1009.41	904.00
1009.66	900.00
1009.90	890.00
1010.14	856.00
1010.38	883.00
1010.62	913.00
1010.86	911.00
1011.10	870.00
1011.35	862.00
1011.59	880.00
1011.83	848.00
1012.07	837.00
1012.31	874.00
1012.55	886.00
1012.80	915.00
1013.04	901.00
1013.28	886.00
1013.52	871.00
1013.76	889.00
1014.00	858.00
1014.24	873.00
1014.49	902.00
1014.73	928.00
1014.97	905.00
1015.21	877.00
1015.45	909.00
1015.69	892.00
1015.93	880.00
1016.18	874.00
1016.42	907.00
1016.66	927.00
1016.90	866.00
1017.14	844.00
1017.38	855.00
1017.62	876.00
1017.87	873.00
1018.11	873.00
1018.35	885.00
1018.59	894.00
1018.83	851.00
1019.07	882.00
1019.31	911.00
1019.55	905.00
1019.80	861.00
1020.04	891.00
1020.28	903.00
1020.52	904.00
1020.76	861.00
1021.00	838.00
1021.24	854.00
1021.48	878.00
1021.73	873.00
1021.97	870.00
1022.21	884.00
1022.45	902.00
1022.69	866.00
1022.93	868.00
1023.17	887.00
1023.41	924.00
1023.65	874.00
1023.90	906.00
1024.14	904.00
1024.38	883.00
1024.62	848.00
1024.86	876.00
1025.10	890.00
1025.34	874.00
1025.58	854.00
1025.82	876.00
1026.07	901.00
1026.31	900.00
1026.55	859.00
1026.79	851.00
1027.03	891.00
1027.27	894.00
1027.51	840.00
1027.75	845.00
1027.99	862.00
1028.23	917.00
1028.47	887.00
1028.72	862.00
1028.96	900.00
1029.20	911.00
1029.44	905.00
1029.68	896.00
1029.92	892.00
1030.16	910.00
1030.40	852.00
1030.64	860.00
1030.88	873.00
1031.12	859.00
1031.37	840.00
1031.61	882.00
1031.85	911.00
1032.09	900.00
1032.33	866.00
1032.57	915.00
1032.81	893.00
1033.05	906.00
1033.29	881.00
1033.53	864.00
1033.77	930.00
1034.01	930.00
1034.25	884.00
1034.50	885.00
1034.74	892.00
1034.98	919.00
1035.22	868.00
1035.46	881.00
1035.70	909.00
1035.94	915.00
1036.18	882.00
1036.42	861.00
1036.66	873.00
1036.90	888.00
1037.14	846.00
1037.38	868.00
1037.62	881.00
1037.86	878.00
1038.10	875.00
1038.35	865.00
1038.59	897.00
1038.83	909.00
1039.07	882.00
1039.31	883.00
1039.55	873.00
1039.79	872.00
1040.03	830.00
1040.27	851.00
1040.51	900.00
1040.75	925.00
1040.99	888.00
1041.23	892.00
1041.47	889.00
1041.71	924.00
1041.95	884.00
1042.19	874.00
1042.43	909.00
1042.67	909.00
1042.91	873.00
1043.15	870.00
1043.39	910.00
1043.64	885.00
1043.88	862.00
1044.12	891.00
1044.36	932.00
1044.60	922.00
1044.84	878.00
1045.08	894.00
1045.32	902.00
1045.56	904.00
1045.80	882.00
1046.04	884.00
1046.28	931.00
1046.52	912.00
1046.76	854.00
1047.00	867.00
1047.24	896.00
1047.48	885.00
1047.72	860.00
1047.96	849.00
1048.20	886.00
1048.44	892.00
1048.68	853.00
1048.92	874.00
1049.16	894.00
1049.40	889.00
1049.64	859.00
1049.88	890.00
1050.12	924.00
1050.36	930.00
1050.60	872.00
1050.84	884.00
1051.08	891.00
1051.32	870.00
1051.56	868.00
1051.80	878.00
1052.04	888.00
1052.28	911.00
1052.52	850.00
1052.76	849.00
1053.00	869.00
1053.24	905.00
1053.48	846.00
1053.72	869.00
1053.96	905.00
1054.20	906.00
1054.44	889.00
1054.68	904.00
1054.92	913.00
1055.16	864.00
1055.40	861.00
1055.64	893.00
1055.88	899.00
1056.12	915.00
1056.36	854.00
1056.60	866.00
1056.84	911.00
1057.08	885.00
1057.32	856.00
1057.56	862.00
1057.80	886.00
1058.04	909.00
1058.28	857.00
1058.52	861.00
1058.76	916.00
1059.00	929.00
1059.24	855.00
1059.48	849.00
1059.72	898.00
1059.96	879.00
1060.20	877.00
1060.44	900.00
1060.68	909.00
1060.92	883.00
1061.16	844.00
1061.40	864.00
1061.64	890.00
1061.88	903.00
1062.11	879.00
1062.35	862.00
1062.59	874.00
1062.83	905.00
1063.07	869.00
1063.31	859.00
1063.55	869.00
1063.79	914.00
1064.03	901.00
1064.27	872.00
1064.51	895.00
1064.75	922.00
1064.99	883.00
1065.23	874.00
1065.47	868.00
1065.71	914.00
1065.95	866.00
1066.19	851.00
1066.43	884.00
1066.67	904.00
1066.91	888.00
1067.15	868.00
1067.38	880.00
1067.62	885.00
1067.86	864.00
1068.10	885.00
1068.34	932.00
1068.58	940.00
1068.82	883.00
1069.06	840.00
1069.30	897.00
1069.54	911.00
1069.78	882.00
1070.02	870.00
1070.26	905.00
1070.50	922.00
1070.74	883.00
1070.98	900.00
1071.21	915.00
1071.45	888.00
1071.69	856.00
1071.93	857.00
1072.17	881.00
1072.41	898.00
1072.65	907.00
1072.89	910.00
1073.13	896.00
1073.37	898.00
1073.61	871.00
1073.85	874.00
1074.09	873.00
1074.32	880.00
1074.56	862.00
1074.80	945.00
1075.04	1170.00
1075.28	1004.00
1075.52	892.00
1075.76	878.00
1076.00	901.00
1076.24	903.00
1076.48	890.00
1076.72	893.00
1076.96	905.00
1077.19	889.00
1077.43	860.00
1077.67	890.00
1077.91	891.00
1078.15	880.00
1078.39	871.00
1078.63	878.00
1078.87	888.00
1079.11	902.00
1079.35	866.00
1079.58	866.00
1079.82	885.00
1080.06	889.00
1080.30	860.00
1080.54	900.00
1080.78	916.00
1081.02	875.00
1081.26	862.00
1081.50	887.00
1081.74	902.00
1081.97	908.00
1082.21	863.00
1082.45	885.00
1082.69	888.00
1082.93	872.00
1083.17	883.00
1083.41	876.00
1083.65	910.00
1083.88	934.00
1084.12	897.00
1084.36	893.00
1084.60	898.00
1084.84	890.00
1085.08	860.00
1085.32	883.00
1085.56	918.00
1085.80	894.00
1086.03	861.00
1086.27	859.00
1086.51	873.00
1086.75	905.00
1086.99	854.00
1087.23	848.00
1087.47	897.00
1087.70	892.00
1087.94	867.00
1088.18	907.00
1088.42	944.00
1088.66	902.00
1088.90	840.00
1089.14	862.00
1089.38	883.00
1089.61	906.00
1089.85	870.00
1090.09	861.00
1090.33	902.00
1090.57	926.00
1090.81	851.00
1091.05	870.00
1091.28	915.00
1091.52	920.00
1091.76	856.00
1092.00	868.00
1092.24	895.00
1092.48	920.00
1092.71	856.00
1092.95	881.00
1093.19	903.00
1093.43	890.00
1093.67	847.00
1093.91	874.00
1094.15	886.00
1094.38	898.00
1094.62	851.00
1094.86	843.00
1095.10	865.00
1095.34	892.00
1095.58	869.00
1095.81	870.00
1096.05	906.00
1096.29	913.00
1096.53	861.00
1096.77	874.00
1097.01	878.00
1097.24	910.00
1097.48	866.00
1097.72	875.00
1097.96	881.00
1098.20	892.00
1098.44	858.00
1098.67	849.00
1098.91	897.00
1099.15	912.00
1099.39	860.00
1099.63	882.00
1099.86	905.00
1100.10	880.00
1100.34	872.00
1100.58	864.00
1100.82	866.00
1101.06	871.00
1101.29	845.00
1101.53	887.00
1101.77	916.00
1102.01	872.00
1102.25	858.00
1102.48	872.00
1102.72	923.00
1102.96	910.00
1103.20	843.00
1103.44	873.00
1103.67	896.00
1103.91	901.00
1104.15	842.00
1104.39	857.00
1104.63	868.00
1104.86	860.00
1105.10	858.00
1105.34	891.00
1105.58	861.00
1105.82	876.00
1106.05	867.00
1106.29	898.00
1106.53	889.00
1106.77	925.00
1107.01	866.00
1107.24	885.00
1107.48	946.00
1107.72	900.00
1107.96	829.00
1108.20	862.00
1108.43	885.00
1108.67	886.00
1108.91	870.00
1109.15	859.00
1109.39	878.00
1109.62	866.00
1109.86	840.00
1110.10	873.00
1110.34	945.00
1110.57	940.00
1110.81	872.00
1111.05	883.00
1111.29	925.00
1111.53	930.00
1111.76	887.00
1112.00	910.00
1112.24	919.00
1112.48	907.00
1112.71	855.00
1112.95	858.00
1113.19	907.00
1113.43	876.00
1113.66	842.00
1113.90	886.00
1114.14	898.00
1114.38	900.00
1114.62	854.00
1114.85	891.00
1115.09	902.00
1115.33	937.00
1115.57	874.00
1115.80	864.00
1116.04	891.00
1116.28	908.00
1116.52	889.00
1116.75	882.00
1116.99	924.00
1117.23	938.00
1117.47	887.00
1117.70	906.00
1117.94	935.00
1118.18	884.00
1118.42	872.00
1118.65	911.00
1118.89	909.00
1119.13	891.00
1119.37	866.00
1119.60	877.00
1119.84	902.00
>>>>>End Processed Spectral Data<<<<<
