SpectraSuite Data File
++++++++++++++++++++++++++++++++++++
Date: Fri Dec 06 16:07:00 CET 2024
User: student
Dark Spectrum Present: No
Reference Spectrum Present: No
Number of Sampled Component Spectra: 1
Spectrometers: HR4C155
Integration Time (usec): 100000 (HR4C155)
Spectra Averaged: 1 (HR4C155)
Boxcar Smoothing: 0 (HR4C155)
Correct for Electrical Dark: No (HR4C155)
Strobe/Lamp Enabled: No (HR4C155)
Correct for Detector Non-linearity: No (HR4C155)
Correct for Stray Light: No (HR4C155)
Number of Pixels in Processed Spectrum: 3648
>>>>>Begin Processed Spectral Data<<<<<
195.39	719.00
195.66	719.00
195.93	719.00
196.20	679.00
196.46	715.00
196.73	833.00
197.00	849.00
197.27	842.00
197.54	867.00
197.81	862.00
198.08	852.00
198.35	878.00
198.61	898.00
198.88	864.00
199.15	865.00
199.42	882.00
199.69	904.00
199.96	877.00
200.23	886.00
200.49	874.00
200.76	898.00
201.03	894.00
201.30	888.00
201.57	951.00
201.84	946.00
202.11	897.00
202.38	917.00
202.64	922.00
202.91	954.00
203.18	877.00
203.45	930.00
203.72	1004.00
203.99	938.00
204.25	931.00
204.52	924.00
204.79	945.00
205.06	949.00
205.33	885.00
205.60	906.00
205.87	941.00
206.13	953.00
206.40	907.00
206.67	891.00
206.94	930.00
207.21	936.00
207.48	910.00
207.75	892.00
208.01	942.00
208.28	932.00
208.55	879.00
208.82	908.00
209.09	907.00
209.36	965.00
209.62	935.00
209.89	946.00
210.16	949.00
210.43	970.00
210.70	901.00
210.97	917.00
211.23	955.00
211.50	954.00
211.77	911.00
212.04	925.00
212.31	919.00
212.58	939.00
212.84	905.00
213.11	916.00
213.38	895.00
213.65	937.00
213.92	912.00
214.18	923.00
214.45	956.00
214.72	958.00
214.99	903.00
215.26	917.00
215.53	920.00
215.79	934.00
216.06	934.00
216.33	906.00
216.60	908.00
216.87	941.00
217.13	864.00
217.40	892.00
217.67	928.00
217.94	961.00
218.21	897.00
218.48	939.00
218.74	981.00
219.01	949.00
219.28	868.00
219.55	889.00
219.82	930.00
220.08	934.00
220.35	908.00
220.62	883.00
220.89	941.00
221.16	985.00
221.42	924.00
221.69	922.00
221.96	939.00
222.23	972.00
222.50	941.00
222.76	940.00
223.03	916.00
223.30	904.00
223.57	887.00
223.84	906.00
224.10	907.00
224.37	926.00
224.64	890.00
224.91	913.00
225.18	950.00
225.44	958.00
225.71	914.00
225.98	944.00
226.25	964.00
226.51	961.00
226.78	913.00
227.05	915.00
227.32	927.00
227.59	940.00
227.85	940.00
228.12	917.00
228.39	952.00
228.66	956.00
228.92	958.00
229.19	938.00
229.46	947.00
229.73	915.00
230.00	910.00
230.26	922.00
230.53	945.00
230.80	945.00
231.07	882.00
231.33	893.00
231.60	939.00
231.87	947.00
232.14	900.00
232.41	922.00
232.67	938.00
232.94	945.00
233.21	905.00
233.48	935.00
233.74	934.00
234.01	914.00
234.28	876.00
234.55	919.00
234.81	922.00
235.08	962.00
235.35	911.00
235.62	905.00
235.88	938.00
236.15	946.00
236.42	914.00
236.69	925.00
236.95	950.00
237.22	928.00
237.49	905.00
237.76	890.00
238.02	955.00
238.29	956.00
238.56	904.00
238.83	883.00
239.09	902.00
239.36	953.00
239.63	897.00
239.90	905.00
240.16	961.00
240.43	999.00
240.70	932.00
240.97	915.00
241.23	910.00
241.50	934.00
241.77	921.00
242.04	906.00
242.30	867.00
242.57	912.00
242.84	892.00
243.11	902.00
243.37	890.00
243.64	963.00
243.91	907.00
244.18	894.00
244.44	882.00
244.71	907.00
244.98	904.00
245.24	908.00
245.51	928.00
245.78	956.00
246.05	895.00
246.31	913.00
246.58	930.00
246.85	913.00
247.12	890.00
247.38	925.00
247.65	924.00
247.92	943.00
248.18	920.00
248.45	920.00
248.72	935.00
248.99	947.00
249.25	891.00
249.52	907.00
249.79	936.00
250.05	947.00
250.32	913.00
250.59	908.00
250.86	917.00
251.12	916.00
251.39	883.00
251.66	915.00
251.92	944.00
252.19	944.00
252.46	886.00
252.73	937.00
252.99	956.00
253.26	954.00
253.53	906.00
253.79	908.00
254.06	915.00
254.33	899.00
254.60	886.00
254.86	882.00
255.13	927.00
255.40	954.00
255.66	909.00
255.93	939.00
256.20	949.00
256.46	939.00
256.73	905.00
257.00	914.00
257.26	935.00
257.53	947.00
257.80	932.00
258.07	933.00
258.33	996.00
258.60	948.00
258.87	886.00
259.13	918.00
259.40	913.00
259.67	949.00
259.93	919.00
260.20	939.00
260.47	951.00
260.73	931.00
261.00	906.00
261.27	918.00
261.53	938.00
261.80	934.00
262.07	899.00
262.34	909.00
262.60	889.00
262.87	923.00
263.14	892.00
263.40	926.00
263.67	919.00
263.94	910.00
264.20	900.00
264.47	888.00
264.74	891.00
265.00	902.00
265.27	878.00
265.54	893.00
265.80	946.00
266.07	961.00
266.34	898.00
266.60	923.00
266.87	924.00
267.14	936.00
267.40	885.00
267.67	886.00
267.94	925.00
268.20	924.00
268.47	876.00
268.74	879.00
269.00	907.00
269.27	903.00
269.54	860.00
269.80	879.00
270.07	941.00
270.33	924.00
270.60	892.00
270.87	900.00
271.13	911.00
271.40	926.00
271.67	855.00
271.93	854.00
272.20	910.00
272.47	891.00
272.73	851.00
273.00	886.00
273.27	919.00
273.53	943.00
273.80	902.00
274.07	894.00
274.33	907.00
274.60	962.00
274.86	897.00
275.13	901.00
275.40	905.00
275.66	962.00
275.93	893.00
276.20	885.00
276.46	892.00
276.73	894.00
277.00	899.00
277.26	916.00
277.53	936.00
277.79	941.00
278.06	904.00
278.33	925.00
278.59	939.00
278.86	916.00
279.13	902.00
279.39	900.00
279.66	945.00
279.93	972.00
280.19	903.00
280.46	889.00
280.72	896.00
280.99	932.00
281.26	888.00
281.52	888.00
281.79	920.00
282.05	928.00
282.32	896.00
282.59	901.00
282.85	961.00
283.12	940.00
283.39	906.00
283.65	899.00
283.92	917.00
284.18	923.00
284.45	893.00
284.72	909.00
284.98	909.00
285.25	911.00
285.51	913.00
285.78	913.00
286.05	899.00
286.31	916.00
286.58	879.00
286.84	889.00
287.11	912.00
287.38	928.00
287.64	922.00
287.91	889.00
288.17	927.00
288.44	927.00
288.71	871.00
288.97	905.00
289.24	936.00
289.50	901.00
289.77	916.00
290.04	869.00
290.30	901.00
290.57	945.00
290.83	876.00
291.10	893.00
291.37	926.00
291.63	918.00
291.90	910.00
292.16	924.00
292.43	932.00
292.70	922.00
292.96	870.00
293.23	871.00
293.49	895.00
293.76	941.00
294.02	898.00
294.29	908.00
294.56	937.00
294.82	923.00
295.09	890.00
295.35	874.00
295.62	917.00
295.89	936.00
296.15	879.00
296.42	882.00
296.68	906.00
296.95	907.00
297.21	899.00
297.48	885.00
297.75	924.00
298.01	949.00
298.28	888.00
298.54	921.00
298.81	915.00
299.07	930.00
299.34	881.00
299.61	881.00
299.87	931.00
300.14	920.00
300.40	918.00
300.67	915.00
300.93	949.00
301.20	973.00
301.46	881.00
301.73	905.00
302.00	922.00
302.26	912.00
302.53	902.00
302.79	921.00
303.06	925.00
303.32	955.00
303.59	886.00
303.85	878.00
304.12	895.00
304.39	919.00
304.65	897.00
304.92	917.00
305.18	916.00
305.45	920.00
305.71	906.00
305.98	903.00
306.24	923.00
306.51	933.00
306.77	898.00
307.04	891.00
307.31	933.00
307.57	929.00
307.84	875.00
308.10	903.00
308.37	890.00
308.63	897.00
308.90	891.00
309.16	903.00
309.43	928.00
309.69	921.00
309.96	913.00
310.22	899.00
310.49	915.00
310.76	933.00
311.02	889.00
311.29	905.00
311.55	912.00
311.82	915.00
312.08	897.00
312.35	904.00
312.61	927.00
312.88	929.00
313.14	887.00
313.41	897.00
313.67	895.00
313.94	927.00
314.20	898.00
314.47	921.00
314.73	903.00
315.00	913.00
315.26	873.00
315.53	914.00
315.79	921.00
316.06	925.00
316.32	894.00
316.59	929.00
316.85	927.00
317.12	938.00
317.39	861.00
317.65	882.00
317.92	909.00
318.18	929.00
318.45	905.00
318.71	946.00
318.98	952.00
319.24	931.00
319.51	897.00
319.77	898.00
320.04	929.00
320.30	919.00
320.57	871.00
320.83	877.00
321.10	876.00
321.36	901.00
321.63	864.00
321.89	893.00
322.16	946.00
322.42	942.00
322.69	881.00
322.95	892.00
323.22	924.00
323.48	955.00
323.75	884.00
324.01	900.00
324.28	932.00
324.54	944.00
324.80	912.00
325.07	924.00
325.33	922.00
325.60	909.00
325.86	879.00
326.13	914.00
326.39	919.00
326.66	901.00
326.92	863.00
327.19	889.00
327.45	933.00
327.72	948.00
327.98	895.00
328.25	883.00
328.51	906.00
328.78	924.00
329.04	893.00
329.31	918.00
329.57	926.00
329.84	921.00
330.10	881.00
330.37	885.00
330.63	939.00
330.89	970.00
331.16	900.00
331.42	909.00
331.69	943.00
331.95	926.00
332.22	923.00
332.48	945.00
332.75	936.00
333.01	906.00
333.28	895.00
333.54	899.00
333.81	916.00
334.07	934.00
334.34	896.00
334.60	897.00
334.86	926.00
335.13	954.00
335.39	906.00
335.66	906.00
335.92	934.00
336.19	921.00
336.45	848.00
336.72	874.00
336.98	901.00
337.24	923.00
337.51	884.00
337.77	893.00
338.04	925.00
338.30	916.00
338.57	886.00
338.83	921.00
339.10	934.00
339.36	927.00
339.63	899.00
339.89	882.00
340.15	908.00
340.42	909.00
340.68	899.00
340.95	917.00
341.21	909.00
341.48	930.00
341.74	872.00
342.00	866.00
342.27	936.00
342.53	931.00
342.80	894.00
343.06	892.00
343.33	919.00
343.59	937.00
343.85	901.00
344.12	920.00
344.38	979.00
344.65	967.00
344.91	900.00
345.18	894.00
345.44	892.00
345.70	901.00
345.97	849.00
346.23	879.00
346.50	933.00
346.76	929.00
347.03	910.00
347.29	905.00
347.55	898.00
347.82	888.00
348.08	876.00
348.35	894.00
348.61	970.00
348.87	952.00
349.14	890.00
349.40	869.00
349.67	916.00
349.93	919.00
350.20	908.00
350.46	919.00
350.72	940.00
350.99	918.00
351.25	895.00
351.52	888.00
351.78	912.00
352.04	916.00
352.31	907.00
352.57	911.00
352.84	898.00
353.10	908.00
353.36	894.00
353.63	894.00
353.89	910.00
354.16	921.00
354.42	909.00
354.68	915.00
354.95	941.00
355.21	932.00
355.48	893.00
355.74	922.00
356.00	957.00
356.27	945.00
356.53	890.00
356.80	898.00
357.06	931.00
357.32	937.00
357.59	914.00
357.85	932.00
358.11	955.00
358.38	929.00
358.64	889.00
358.91	891.00
359.17	906.00
359.43	944.00
359.70	910.00
359.96	900.00
360.22	922.00
360.49	900.00
360.75	900.00
361.02	891.00
361.28	913.00
361.54	919.00
361.81	880.00
362.07	896.00
362.33	901.00
362.60	898.00
362.86	873.00
363.13	901.00
363.39	933.00
363.65	927.00
363.92	852.00
364.18	866.00
364.44	908.00
364.71	930.00
364.97	889.00
365.24	880.00
365.50	930.00
365.76	938.00
366.03	906.00
366.29	924.00
366.55	934.00
366.82	927.00
367.08	893.00
367.34	913.00
367.61	935.00
367.87	937.00
368.13	903.00
368.40	897.00
368.66	972.00
368.93	940.00
369.19	874.00
369.45	877.00
369.72	897.00
369.98	893.00
370.24	854.00
370.51	880.00
370.77	896.00
371.03	902.00
371.30	879.00
371.56	916.00
371.82	931.00
372.09	913.00
372.35	914.00
372.61	910.00
372.88	904.00
373.14	923.00
373.40	901.00
373.67	883.00
373.93	910.00
374.19	930.00
374.46	898.00
374.72	883.00
374.98	913.00
375.25	931.00
375.51	916.00
375.77	918.00
376.04	933.00
376.30	947.00
376.56	902.00
376.83	900.00
377.09	924.00
377.35	931.00
377.62	906.00
377.88	900.00
378.14	897.00
378.41	937.00
378.67	892.00
378.93	896.00
379.20	927.00
379.46	891.00
379.72	880.00
379.99	910.00
380.25	904.00
380.51	898.00
380.77	896.00
381.04	899.00
381.30	923.00
381.56	939.00
381.83	910.00
382.09	888.00
382.35	903.00
382.62	933.00
382.88	932.00
383.14	917.00
383.41	900.00
383.67	905.00
383.93	906.00
384.20	897.00
384.46	896.00
384.72	945.00
384.98	876.00
385.25	887.00
385.51	919.00
385.77	923.00
386.04	907.00
386.30	882.00
386.56	931.00
386.82	988.00
387.09	911.00
387.35	932.00
387.61	973.00
387.88	934.00
388.14	923.00
388.40	918.00
388.67	912.00
388.93	920.00
389.19	906.00
389.45	907.00
389.72	916.00
389.98	933.00
390.24	913.00
390.51	892.00
390.77	932.00
391.03	942.00
391.29	883.00
391.56	899.00
391.82	929.00
392.08	948.00
392.35	909.00
392.61	913.00
392.87	944.00
393.13	939.00
393.40	901.00
393.66	898.00
393.92	909.00
394.18	917.00
394.45	859.00
394.71	869.00
394.97	887.00
395.24	889.00
395.50	870.00
395.76	917.00
396.02	931.00
396.29	931.00
396.55	855.00
396.81	833.00
397.07	902.00
397.34	881.00
397.60	876.00
397.86	880.00
398.12	890.00
398.39	918.00
398.65	873.00
398.91	875.00
399.17	889.00
399.44	856.00
399.70	845.00
399.96	880.00
400.22	893.00
400.49	933.00
400.75	887.00
401.01	894.00
401.27	902.00
401.54	923.00
401.80	892.00
402.06	873.00
402.32	913.00
402.59	915.00
402.85	861.00
403.11	886.00
403.37	917.00
403.64	949.00
403.90	888.00
404.16	902.00
404.42	907.00
404.69	902.00
404.95	873.00
405.21	841.00
405.47	897.00
405.74	934.00
406.00	890.00
406.26	878.00
406.52	906.00
406.79	921.00
407.05	904.00
407.31	910.00
407.57	906.00
407.83	912.00
408.10	877.00
408.36	877.00
408.62	901.00
408.88	902.00
409.15	872.00
409.41	860.00
409.67	878.00
409.93	919.00
410.20	900.00
410.46	901.00
410.72	890.00
410.98	910.00
411.24	889.00
411.51	906.00
411.77	899.00
412.03	917.00
412.29	921.00
412.55	934.00
412.82	909.00
413.08	912.00
413.34	914.00
413.60	908.00
413.87	909.00
414.13	922.00
414.39	870.00
414.65	885.00
414.91	929.00
415.18	910.00
415.44	870.00
415.70	865.00
415.96	914.00
416.22	927.00
416.49	887.00
416.75	882.00
417.01	909.00
417.27	908.00
417.53	884.00
417.80	899.00
418.06	910.00
418.32	908.00
418.58	864.00
418.84	869.00
419.11	909.00
419.37	926.00
419.63	882.00
419.89	878.00
420.15	907.00
420.42	900.00
420.68	877.00
420.94	894.00
421.20	900.00
421.46	912.00
421.72	896.00
421.99	914.00
422.25	919.00
422.51	922.00
422.77	885.00
423.03	921.00
423.30	916.00
423.56	918.00
423.82	922.00
424.08	906.00
424.34	903.00
424.60	913.00
424.87	882.00
425.13	886.00
425.39	895.00
425.65	893.00
425.91	875.00
426.18	900.00
426.44	907.00
426.70	892.00
426.96	843.00
427.22	845.00
427.48	873.00
427.75	894.00
428.01	868.00
428.27	903.00
428.53	935.00
428.79	888.00
429.05	878.00
429.32	881.00
429.58	925.00
429.84	893.00
430.10	899.00
430.36	881.00
430.62	934.00
430.88	931.00
431.15	895.00
431.41	909.00
431.67	908.00
431.93	898.00
432.19	866.00
432.45	895.00
432.72	914.00
432.98	909.00
433.24	925.00
433.50	990.00
433.76	904.00
434.02	876.00
434.28	871.00
434.55	887.00
434.81	913.00
435.07	918.00
435.33	857.00
435.59	892.00
435.85	917.00
436.11	926.00
436.38	874.00
436.64	870.00
436.90	902.00
437.16	890.00
437.42	868.00
437.68	870.00
437.94	925.00
438.21	928.00
438.47	923.00
438.73	908.00
438.99	913.00
439.25	933.00
439.51	913.00
439.77	898.00
440.03	898.00
440.30	929.00
440.56	896.00
440.82	918.00
441.08	930.00
441.34	916.00
441.60	863.00
441.86	889.00
442.12	929.00
442.39	912.00
442.65	881.00
442.91	885.00
443.17	883.00
443.43	912.00
443.69	895.00
443.95	867.00
444.21	891.00
444.47	909.00
444.74	859.00
445.00	891.00
445.26	908.00
445.52	907.00
445.78	880.00
446.04	878.00
446.30	919.00
446.56	914.00
446.82	867.00
447.09	902.00
447.35	931.00
447.61	909.00
447.87	885.00
448.13	909.00
448.39	961.00
448.65	930.00
448.91	882.00
449.17	884.00
449.43	892.00
449.70	916.00
449.96	868.00
450.22	867.00
450.48	917.00
450.74	945.00
451.00	887.00
451.26	874.00
451.52	892.00
451.78	903.00
452.04	859.00
452.31	903.00
452.57	916.00
452.83	891.00
453.09	872.00
453.35	891.00
453.61	911.00
453.87	903.00
454.13	905.00
454.39	923.00
454.65	969.00
454.91	946.00
455.17	884.00
455.44	904.00
455.70	923.00
455.96	919.00
456.22	862.00
456.48	878.00
456.74	900.00
457.00	874.00
457.26	848.00
457.52	880.00
457.78	904.00
458.04	905.00
458.30	856.00
458.56	884.00
458.82	907.00
459.09	893.00
459.35	833.00
459.61	851.00
459.87	901.00
460.13	925.00
460.39	882.00
460.65	858.00
460.91	922.00
461.17	896.00
461.43	861.00
461.69	869.00
461.95	914.00
462.21	901.00
462.47	899.00
462.73	908.00
462.99	914.00
463.26	920.00
463.52	869.00
463.78	860.00
464.04	892.00
464.30	916.00
464.56	882.00
464.82	893.00
465.08	951.00
465.34	942.00
465.60	890.00
465.86	888.00
466.12	894.00
466.38	871.00
466.64	845.00
466.90	892.00
467.16	923.00
467.42	930.00
467.68	862.00
467.94	893.00
468.20	937.00
468.46	910.00
468.72	889.00
468.98	923.00
469.25	930.00
469.51	902.00
469.77	914.00
470.03	915.00
470.29	901.00
470.55	915.00
470.81	894.00
471.07	902.00
471.33	924.00
471.59	916.00
471.85	874.00
472.11	904.00
472.37	912.00
472.63	908.00
472.89	897.00
473.15	885.00
473.41	904.00
473.67	898.00
473.93	843.00
474.19	851.00
474.45	873.00
474.71	915.00
474.97	876.00
475.23	880.00
475.49	892.00
475.75	875.00
476.01	880.00
476.27	890.00
476.53	929.00
476.79	918.00
477.05	883.00
477.31	890.00
477.57	916.00
477.83	902.00
478.09	853.00
478.35	891.00
478.61	935.00
478.87	905.00
479.13	873.00
479.39	910.00
479.65	927.00
479.91	914.00
480.17	903.00
480.43	905.00
480.69	899.00
480.95	926.00
481.21	889.00
481.47	879.00
481.73	899.00
481.99	884.00
482.25	848.00
482.51	862.00
482.77	919.00
483.03	926.00
483.29	893.00
483.55	893.00
483.81	923.00
484.07	917.00
484.33	871.00
484.59	879.00
484.85	932.00
485.11	932.00
485.37	898.00
485.63	878.00
485.89	889.00
486.15	886.00
486.41	882.00
486.67	902.00
486.93	915.00
487.19	872.00
487.45	863.00
487.71	883.00
487.97	932.00
488.23	940.00
488.49	882.00
488.75	867.00
489.01	898.00
489.27	929.00
489.53	868.00
489.79	872.00
490.05	895.00
490.31	909.00
490.57	902.00
490.83	947.00
491.08	909.00
491.34	884.00
491.60	872.00
491.86	907.00
492.12	934.00
492.38	931.00
492.64	869.00
492.90	873.00
493.16	921.00
493.42	880.00
493.68	865.00
493.94	907.00
494.20	884.00
494.46	909.00
494.72	879.00
494.98	894.00
495.24	899.00
495.50	899.00
495.76	898.00
496.02	914.00
496.28	930.00
496.54	934.00
496.80	889.00
497.05	857.00
497.31	918.00
497.57	914.00
497.83	887.00
498.09	898.00
498.35	921.00
498.61	891.00
498.87	879.00
499.13	898.00
499.39	910.00
499.65	903.00
499.91	880.00
500.17	877.00
500.43	959.00
500.69	972.00
500.95	873.00
501.20	903.00
501.46	913.00
501.72	922.00
501.98	912.00
502.24	910.00
502.50	924.00
502.76	907.00
503.02	878.00
503.28	889.00
503.54	938.00
503.80	953.00
504.06	914.00
504.32	912.00
504.58	916.00
504.83	902.00
505.09	860.00
505.35	891.00
505.61	893.00
505.87	898.00
506.13	922.00
506.39	884.00
506.65	930.00
506.91	965.00
507.17	891.00
507.43	882.00
507.68	902.00
507.94	909.00
508.20	871.00
508.46	859.00
508.72	925.00
508.98	940.00
509.24	876.00
509.50	910.00
509.76	896.00
510.02	886.00
510.28	869.00
510.53	883.00
510.79	921.00
511.05	906.00
511.31	881.00
511.57	894.00
511.83	896.00
512.09	915.00
512.35	877.00
512.61	900.00
512.87	920.00
513.12	918.00
513.38	870.00
513.64	888.00
513.90	900.00
514.16	937.00
514.42	888.00
514.68	889.00
514.94	918.00
515.20	929.00
515.45	878.00
515.71	885.00
515.97	910.00
516.23	894.00
516.49	870.00
516.75	880.00
517.01	898.00
517.27	885.00
517.53	850.00
517.78	888.00
518.04	901.00
518.30	882.00
518.56	873.00
518.82	917.00
519.08	937.00
519.34	906.00
519.60	885.00
519.85	892.00
520.11	906.00
520.37	895.00
520.63	878.00
520.89	904.00
521.15	915.00
521.41	899.00
521.66	887.00
521.92	887.00
522.18	927.00
522.44	931.00
522.70	886.00
522.96	856.00
523.22	911.00
523.48	907.00
523.73	879.00
523.99	871.00
524.25	931.00
524.51	913.00
524.77	857.00
525.03	862.00
525.29	903.00
525.54	931.00
525.80	893.00
526.06	884.00
526.32	895.00
526.58	884.00
526.84	875.00
527.09	876.00
527.35	871.00
527.61	877.00
527.87	865.00
528.13	917.00
528.39	904.00
528.65	900.00
528.90	848.00
529.16	859.00
529.42	868.00
529.68	877.00
529.94	856.00
530.20	872.00
530.45	889.00
530.71	904.00
530.97	866.00
531.23	882.00
531.49	910.00
531.75	909.00
532.00	890.00
532.26	874.00
532.52	915.00
532.78	888.00
533.04	873.00
533.30	897.00
533.55	906.00
533.81	896.00
534.07	860.00
534.33	875.00
534.59	917.00
534.85	910.00
535.10	861.00
535.36	858.00
535.62	896.00
535.88	879.00
536.14	851.00
536.39	866.00
536.65	924.00
536.91	920.00
537.17	867.00
537.43	877.00
537.69	925.00
537.94	899.00
538.20	869.00
538.46	877.00
538.72	900.00
538.98	905.00
539.23	890.00
539.49	860.00
539.75	918.00
540.01	903.00
540.27	881.00
540.52	924.00
540.78	920.00
541.04	930.00
541.30	864.00
541.56	852.00
541.81	916.00
542.07	971.00
542.33	901.00
542.59	888.00
542.85	901.00
543.10	911.00
543.36	873.00
543.62	909.00
543.88	903.00
544.14	891.00
544.39	876.00
544.65	893.00
544.91	936.00
545.17	911.00
545.43	869.00
545.68	865.00
545.94	911.00
546.20	936.00
546.46	890.00
546.71	880.00
546.97	901.00
547.23	912.00
547.49	892.00
547.75	869.00
548.00	894.00
548.26	927.00
548.52	872.00
548.78	853.00
549.03	900.00
549.29	910.00
549.55	857.00
549.81	898.00
550.07	918.00
550.32	915.00
550.58	872.00
550.84	877.00
551.10	885.00
551.35	902.00
551.61	891.00
551.87	909.00
552.13	921.00
552.39	891.00
552.64	840.00
552.90	888.00
553.16	904.00
553.42	907.00
553.67	866.00
553.93	877.00
554.19	916.00
554.45	933.00
554.70	893.00
554.96	861.00
555.22	903.00
555.48	921.00
555.73	871.00
555.99	883.00
556.25	918.00
556.51	898.00
556.76	882.00
557.02	903.00
557.28	916.00
557.54	894.00
557.79	869.00
558.05	900.00
558.31	891.00
558.57	907.00
558.82	854.00
559.08	868.00
559.34	858.00
559.60	899.00
559.85	856.00
560.11	873.00
560.37	899.00
560.63	887.00
560.88	862.00
561.14	872.00
561.40	915.00
561.66	883.00
561.91	873.00
562.17	909.00
562.43	916.00
562.68	932.00
562.94	905.00
563.20	892.00
563.46	906.00
563.71	920.00
563.97	874.00
564.23	887.00
564.49	912.00
564.74	894.00
565.00	858.00
565.26	864.00
565.51	885.00
565.77	881.00
566.03	861.00
566.29	884.00
566.54	888.00
566.80	879.00
567.06	866.00
567.31	907.00
567.57	939.00
567.83	904.00
568.09	897.00
568.34	876.00
568.60	906.00
568.86	924.00
569.11	890.00
569.37	883.00
569.63	916.00
569.89	923.00
570.14	846.00
570.40	860.00
570.66	881.00
570.91	893.00
571.17	884.00
571.43	887.00
571.69	901.00
571.94	909.00
572.20	866.00
572.46	874.00
572.71	910.00
572.97	893.00
573.23	848.00
573.48	862.00
573.74	894.00
574.00	909.00
574.26	871.00
574.51	893.00
574.77	924.00
575.03	902.00
575.28	878.00
575.54	863.00
575.80	877.00
576.05	904.00
576.31	859.00
576.57	863.00
576.82	906.00
577.08	911.00
577.34	876.00
577.59	884.00
577.85	917.00
578.11	912.00
578.37	891.00
578.62	867.00
578.88	911.00
579.14	910.00
579.39	882.00
579.65	897.00
579.91	898.00
580.16	901.00
580.42	873.00
580.68	879.00
580.93	898.00
581.19	886.00
581.45	865.00
581.70	895.00
581.96	902.00
582.22	933.00
582.47	875.00
582.73	886.00
582.99	902.00
583.24	901.00
583.50	856.00
583.76	875.00
584.01	898.00
584.27	922.00
584.53	885.00
584.78	891.00
585.04	884.00
585.30	905.00
585.55	880.00
585.81	881.00
586.07	927.00
586.32	928.00
586.58	884.00
586.83	883.00
587.09	918.00
587.35	926.00
587.60	881.00
587.86	897.00
588.12	890.00
588.37	910.00
588.63	883.00
588.89	899.00
589.14	912.00
589.40	926.00
589.66	887.00
589.91	891.00
590.17	910.00
590.43	854.00
590.68	846.00
590.94	882.00
591.19	913.00
591.45	912.00
591.71	876.00
591.96	883.00
592.22	912.00
592.48	917.00
592.73	878.00
592.99	884.00
593.25	899.00
593.50	897.00
593.76	872.00
594.01	889.00
594.27	914.00
594.53	907.00
594.78	875.00
595.04	886.00
595.30	886.00
595.55	901.00
595.81	856.00
596.06	905.00
596.32	942.00
596.58	925.00
596.83	873.00
597.09	917.00
597.35	899.00
597.60	881.00
597.86	858.00
598.11	858.00
598.37	912.00
598.63	915.00
598.88	893.00
599.14	889.00
599.39	912.00
599.65	889.00
599.91	842.00
600.16	874.00
600.42	890.00
600.67	921.00
600.93	868.00
601.19	886.00
601.44	932.00
601.70	906.00
601.95	861.00
602.21	884.00
602.47	896.00
602.72	909.00
602.98	875.00
603.23	882.00
603.49	895.00
603.75	908.00
604.00	867.00
604.26	875.00
604.51	886.00
604.77	936.00
605.03	869.00
605.28	873.00
605.54	919.00
605.79	930.00
606.05	864.00
606.31	861.00
606.56	909.00
606.82	929.00
607.07	894.00
607.33	887.00
607.59	926.00
607.84	921.00
608.10	862.00
608.35	892.00
608.61	916.00
608.86	926.00
609.12	874.00
609.38	894.00
609.63	923.00
609.89	902.00
610.14	852.00
610.40	883.00
610.65	892.00
610.91	883.00
611.17	873.00
611.42	906.00
611.68	929.00
611.93	942.00
612.19	899.00
612.44	912.00
612.70	923.00
612.96	894.00
613.21	867.00
613.47	858.00
613.72	898.00
613.98	913.00
614.23	875.00
614.49	904.00
614.75	929.00
615.00	915.00
615.26	880.00
615.51	872.00
615.77	911.00
616.02	937.00
616.28	897.00
616.53	918.00
616.79	923.00
617.05	899.00
617.30	882.00
617.56	897.00
617.81	931.00
618.07	927.00
618.32	897.00
618.58	931.00
618.83	952.00
619.09	934.00
619.34	886.00
619.60	907.00
619.86	933.00
620.11	952.00
620.37	912.00
620.62	926.00
620.88	948.00
621.13	957.00
621.39	924.00
621.64	928.00
621.90	968.00
622.15	943.00
622.41	934.00
622.66	944.00
622.92	963.00
623.18	969.00
623.43	927.00
623.69	944.00
623.94	992.00
624.20	983.00
624.45	949.00
624.71	979.00
624.96	983.00
625.22	1031.00
625.47	982.00
625.73	1012.00
625.98	1053.00
626.24	1072.00
626.49	1047.00
626.75	1049.00
627.00	1093.00
627.26	1103.00
627.51	1060.00
627.77	1093.00
628.02	1110.00
628.28	1125.00
628.53	1091.00
628.79	1149.00
629.05	1180.00
629.30	1163.00
629.56	1163.00
629.81	1235.00
630.07	1293.00
630.32	1361.00
630.58	1367.00
630.83	1404.00
631.09	1472.00
631.34	1511.00
631.60	1489.00
631.85	1531.00
632.11	1629.00
632.36	1805.00
632.62	1998.00
632.87	2173.00
633.13	2216.00
633.38	2268.00
633.64	2436.00
633.89	2630.00
634.15	3046.00
634.40	3528.00
634.66	3845.00
634.91	4285.00
635.17	4887.00
635.42	5542.00
635.68	5471.00
635.93	5129.00
636.18	4903.00
636.44	4657.00
636.69	4326.00
636.95	4062.00
637.20	3577.00
637.46	3096.00
637.71	2726.00
637.97	2459.00
638.22	2218.00
638.48	2040.00
638.73	1803.00
638.99	1630.00
639.24	1589.00
639.50	1566.00
639.75	1456.00
640.01	1396.00
640.26	1346.00
640.52	1296.00
640.77	1199.00
641.03	1186.00
641.28	1163.00
641.54	1135.00
641.79	1093.00
642.04	1125.00
642.30	1107.00
642.55	1093.00
642.81	1032.00
643.06	1042.00
643.32	1088.00
643.57	1051.00
643.83	988.00
644.08	973.00
644.34	1005.00
644.59	1020.00
644.85	965.00
645.10	950.00
645.35	982.00
645.61	972.00
645.86	932.00
646.12	962.00
646.37	1000.00
646.63	967.00
646.88	889.00
647.14	921.00
647.39	936.00
647.65	971.00
647.90	901.00
648.15	927.00
648.41	953.00
648.66	946.00
648.92	887.00
649.17	907.00
649.43	934.00
649.68	927.00
649.94	894.00
650.19	900.00
650.44	920.00
650.70	933.00
650.95	884.00
651.21	901.00
651.46	921.00
651.72	919.00
651.97	887.00
652.23	875.00
652.48	912.00
652.73	899.00
652.99	882.00
653.24	897.00
653.50	877.00
653.75	901.00
654.01	889.00
654.26	904.00
654.51	890.00
654.77	930.00
655.02	904.00
655.28	864.00
655.53	871.00
655.79	910.00
656.04	888.00
656.29	898.00
656.55	906.00
656.80	929.00
657.06	849.00
657.31	859.00
657.56	889.00
657.82	878.00
658.07	880.00
658.33	898.00
658.58	896.00
658.84	922.00
659.09	869.00
659.34	880.00
659.60	883.00
659.85	891.00
660.11	855.00
660.36	880.00
660.61	897.00
660.87	880.00
661.12	861.00
661.38	884.00
661.63	889.00
661.88	895.00
662.14	901.00
662.39	897.00
662.65	926.00
662.90	958.00
663.15	872.00
663.41	871.00
663.66	934.00
663.92	942.00
664.17	869.00
664.42	881.00
664.68	900.00
664.93	886.00
665.19	861.00
665.44	864.00
665.69	866.00
665.95	892.00
666.20	860.00
666.45	902.00
666.71	900.00
666.96	906.00
667.22	852.00
667.47	888.00
667.72	889.00
667.98	903.00
668.23	877.00
668.49	927.00
668.74	924.00
668.99	903.00
669.25	849.00
669.50	861.00
669.75	878.00
670.01	889.00
670.26	863.00
670.52	877.00
670.77	913.00
671.02	894.00
671.28	883.00
671.53	891.00
671.78	904.00
672.04	900.00
672.29	873.00
672.54	859.00
672.80	889.00
673.05	898.00
673.31	865.00
673.56	900.00
673.81	929.00
674.07	908.00
674.32	876.00
674.57	884.00
674.83	885.00
675.08	892.00
675.33	894.00
675.59	889.00
675.84	906.00
676.09	882.00
676.35	883.00
676.60	894.00
676.86	898.00
677.11	921.00
677.36	889.00
677.62	897.00
677.87	947.00
678.12	960.00
678.38	862.00
678.63	862.00
678.88	905.00
679.14	916.00
679.39	850.00
679.64	897.00
679.90	890.00
680.15	912.00
680.40	900.00
680.66	868.00
680.91	901.00
681.16	894.00
681.42	861.00
681.67	865.00
681.92	886.00
682.18	923.00
682.43	856.00
682.68	863.00
682.94	888.00
683.19	881.00
683.44	859.00
683.70	893.00
683.95	892.00
684.20	900.00
684.46	896.00
684.71	895.00
684.96	897.00
685.22	897.00
685.47	883.00
685.72	890.00
685.98	910.00
686.23	858.00
686.48	857.00
686.74	904.00
686.99	929.00
687.24	918.00
687.50	881.00
687.75	885.00
688.00	896.00
688.25	912.00
688.51	896.00
688.76	910.00
689.01	874.00
689.27	880.00
689.52	837.00
689.77	868.00
690.03	879.00
690.28	883.00
690.53	864.00
690.79	893.00
691.04	904.00
691.29	917.00
691.54	848.00
691.80	886.00
692.05	898.00
692.30	876.00
692.56	853.00
692.81	900.00
693.06	877.00
693.32	881.00
693.57	874.00
693.82	905.00
694.07	908.00
694.33	900.00
694.58	866.00
694.83	893.00
695.09	895.00
695.34	930.00
695.59	889.00
695.84	883.00
696.10	917.00
696.35	907.00
696.60	848.00
696.86	867.00
697.11	890.00
697.36	904.00
697.61	872.00
697.87	892.00
698.12	888.00
698.37	902.00
698.63	883.00
698.88	888.00
699.13	900.00
699.38	889.00
699.64	852.00
699.89	898.00
700.14	888.00
700.39	868.00
700.65	868.00
700.90	909.00
701.15	899.00
701.40	910.00
701.66	865.00
701.91	882.00
702.16	902.00
702.42	895.00
702.67	845.00
702.92	852.00
703.17	885.00
703.43	879.00
703.68	879.00
703.93	896.00
704.18	932.00
704.44	892.00
704.69	870.00
704.94	894.00
705.19	893.00
705.45	923.00
705.70	882.00
705.95	871.00
706.20	886.00
706.46	917.00
706.71	883.00
706.96	877.00
707.21	888.00
707.47	900.00
707.72	873.00
707.97	897.00
708.22	916.00
708.48	934.00
708.73	878.00
708.98	868.00
709.23	875.00
709.49	899.00
709.74	870.00
709.99	878.00
710.24	886.00
710.50	884.00
710.75	883.00
711.00	887.00
711.25	895.00
711.50	878.00
711.76	863.00
712.01	868.00
712.26	874.00
712.51	906.00
712.77	865.00
713.02	882.00
713.27	890.00
713.52	887.00
713.78	863.00
714.03	883.00
714.28	877.00
714.53	901.00
714.78	874.00
715.04	920.00
715.29	905.00
715.54	903.00
715.79	858.00
716.05	886.00
716.30	891.00
716.55	917.00
716.80	897.00
717.05	908.00
717.31	901.00
717.56	912.00
717.81	882.00
718.06	879.00
718.31	883.00
718.57	881.00
718.82	871.00
719.07	902.00
719.32	872.00
719.57	893.00
719.83	881.00
720.08	908.00
720.33	871.00
720.58	864.00
720.83	839.00
721.09	902.00
721.34	879.00
721.59	901.00
721.84	854.00
722.09	871.00
722.35	895.00
722.60	884.00
722.85	845.00
723.10	876.00
723.35	878.00
723.61	887.00
723.86	881.00
724.11	886.00
724.36	877.00
724.61	888.00
724.87	881.00
725.12	874.00
725.37	871.00
725.62	877.00
725.87	866.00
726.12	857.00
726.38	860.00
726.63	888.00
726.88	867.00
727.13	882.00
727.38	891.00
727.64	914.00
727.89	871.00
728.14	868.00
728.39	852.00
728.64	882.00
728.89	876.00
729.15	914.00
729.40	914.00
729.65	915.00
729.90	865.00
730.15	884.00
730.40	913.00
730.66	896.00
730.91	854.00
731.16	897.00
731.41	904.00
731.66	896.00
731.91	855.00
732.17	900.00
732.42	915.00
732.67	903.00
732.92	870.00
733.17	889.00
733.42	895.00
733.68	883.00
733.93	872.00
734.18	887.00
734.43	869.00
734.68	881.00
734.93	875.00
735.18	897.00
735.44	901.00
735.69	906.00
735.94	849.00
736.19	887.00
736.44	892.00
736.69	927.00
736.95	870.00
737.20	907.00
737.45	912.00
737.70	890.00
737.95	884.00
738.20	900.00
738.45	912.00
738.70	909.00
738.96	876.00
739.21	905.00
739.46	905.00
739.71	917.00
739.96	889.00
740.21	923.00
740.46	972.00
740.72	937.00
740.97	868.00
741.22	902.00
741.47	891.00
741.72	898.00
741.97	858.00
742.22	886.00
742.47	908.00
742.73	896.00
742.98	868.00
743.23	859.00
743.48	871.00
743.73	894.00
743.98	881.00
744.23	878.00
744.48	888.00
744.74	875.00
744.99	858.00
745.24	898.00
745.49	892.00
745.74	932.00
745.99	865.00
746.24	880.00
746.49	861.00
746.74	877.00
747.00	889.00
747.25	887.00
747.50	849.00
747.75	878.00
748.00	844.00
748.25	870.00
748.50	894.00
748.75	918.00
749.00	911.00
749.26	917.00
749.51	894.00
749.76	908.00
750.01	867.00
750.26	904.00
750.51	929.00
750.76	918.00
751.01	867.00
751.26	890.00
751.51	897.00
751.77	903.00
752.02	885.00
752.27	866.00
752.52	890.00
752.77	904.00
753.02	857.00
753.27	892.00
753.52	890.00
753.77	880.00
754.02	858.00
754.27	874.00
754.52	861.00
754.78	897.00
755.03	872.00
755.28	888.00
755.53	898.00
755.78	889.00
756.03	848.00
756.28	869.00
756.53	904.00
756.78	911.00
757.03	882.00
757.28	905.00
757.53	913.00
757.79	863.00
758.04	842.00
758.29	891.00
758.54	896.00
758.79	903.00
759.04	855.00
759.29	838.00
759.54	873.00
759.79	871.00
760.04	883.00
760.29	885.00
760.54	878.00
760.79	893.00
761.04	851.00
761.29	883.00
761.55	877.00
761.80	890.00
762.05	866.00
762.30	892.00
762.55	882.00
762.80	913.00
763.05	900.00
763.30	913.00
763.55	926.00
763.80	901.00
764.05	850.00
764.30	885.00
764.55	919.00
764.80	897.00
765.05	861.00
765.30	889.00
765.55	902.00
765.80	893.00
766.05	858.00
766.30	873.00
766.56	884.00
766.81	898.00
767.06	892.00
767.31	896.00
767.56	878.00
767.81	878.00
768.06	858.00
768.31	896.00
768.56	892.00
768.81	927.00
769.06	868.00
769.31	891.00
769.56	890.00
769.81	909.00
770.06	852.00
770.31	876.00
770.56	908.00
770.81	887.00
771.06	853.00
771.31	881.00
771.56	884.00
771.81	914.00
772.06	858.00
772.31	903.00
772.56	906.00
772.81	918.00
773.06	865.00
773.31	886.00
773.56	882.00
773.81	857.00
774.06	843.00
774.31	878.00
774.56	902.00
774.81	912.00
775.06	876.00
775.31	901.00
775.56	907.00
775.81	876.00
776.06	861.00
776.31	888.00
776.56	891.00
776.82	894.00
777.07	863.00
777.32	883.00
777.57	882.00
777.82	919.00
778.07	859.00
778.32	866.00
778.57	881.00
778.82	918.00
779.07	873.00
779.32	875.00
779.57	845.00
779.82	892.00
780.07	870.00
780.32	874.00
780.56	885.00
780.81	925.00
781.06	853.00
781.31	867.00
781.56	907.00
781.81	896.00
782.06	858.00
782.31	900.00
782.56	887.00
782.81	916.00
783.06	851.00
783.31	882.00
783.56	877.00
783.81	909.00
784.06	880.00
784.31	880.00
784.56	861.00
784.81	913.00
785.06	882.00
785.31	903.00
785.56	882.00
785.81	883.00
786.06	847.00
786.31	878.00
786.56	869.00
786.81	887.00
787.06	886.00
787.31	886.00
787.56	864.00
787.81	862.00
788.06	846.00
788.31	896.00
788.56	886.00
788.81	920.00
789.06	892.00
789.31	893.00
789.56	890.00
789.81	886.00
790.06	851.00
790.31	900.00
790.56	886.00
790.80	870.00
791.05	852.00
791.30	871.00
791.55	869.00
791.80	886.00
792.05	866.00
792.30	872.00
792.55	862.00
792.80	888.00
793.05	855.00
793.30	862.00
793.55	901.00
793.80	908.00
794.05	852.00
794.30	883.00
794.55	879.00
794.80	900.00
795.05	844.00
795.30	870.00
795.54	869.00
795.79	886.00
796.04	852.00
796.29	876.00
796.54	891.00
796.79	913.00
797.04	878.00
797.29	889.00
797.54	916.00
797.79	893.00
798.04	871.00
798.29	877.00
798.54	849.00
798.79	869.00
799.04	855.00
799.29	892.00
799.53	885.00
799.78	890.00
800.03	852.00
800.28	851.00
800.53	870.00
800.78	919.00
801.03	883.00
801.28	905.00
801.53	890.00
801.78	921.00
802.03	893.00
802.28	916.00
802.52	926.00
802.77	916.00
803.02	900.00
803.27	914.00
803.52	859.00
803.77	886.00
804.02	891.00
804.27	922.00
804.52	917.00
804.77	913.00
805.02	853.00
805.27	884.00
805.51	875.00
805.76	910.00
806.01	880.00
806.26	884.00
806.51	877.00
806.76	927.00
807.01	884.00
807.26	870.00
807.51	893.00
807.76	873.00
808.00	849.00
808.25	882.00
808.50	901.00
808.75	895.00
809.00	865.00
809.25	866.00
809.50	882.00
809.75	918.00
810.00	905.00
810.24	882.00
810.49	863.00
810.74	857.00
810.99	874.00
811.24	871.00
811.49	876.00
811.74	892.00
811.99	845.00
812.24	877.00
812.48	869.00
812.73	854.00
812.98	842.00
813.23	853.00
813.48	868.00
813.73	881.00
813.98	834.00
814.23	861.00
814.47	861.00
814.72	878.00
814.97	851.00
815.22	902.00
815.47	870.00
815.72	870.00
815.97	837.00
816.22	869.00
816.46	860.00
816.71	899.00
816.96	878.00
817.21	899.00
817.46	892.00
817.71	899.00
817.96	875.00
818.20	868.00
818.45	842.00
818.70	886.00
818.95	854.00
819.20	878.00
819.45	878.00
819.70	882.00
819.94	852.00
820.19	877.00
820.44	871.00
820.69	912.00
820.94	877.00
821.19	906.00
821.44	954.00
821.68	955.00
821.93	886.00
822.18	899.00
822.43	913.00
822.68	915.00
822.93	874.00
823.17	906.00
823.42	900.00
823.67	880.00
823.92	849.00
824.17	876.00
824.42	885.00
824.67	902.00
824.91	868.00
825.16	874.00
825.41	885.00
825.66	883.00
825.91	859.00
826.16	873.00
826.40	880.00
826.65	893.00
826.90	867.00
827.15	896.00
827.40	896.00
827.65	908.00
827.89	822.00
828.14	856.00
828.39	886.00
828.64	891.00
828.89	849.00
829.13	876.00
829.38	873.00
829.63	888.00
829.88	852.00
830.13	867.00
830.38	865.00
830.62	869.00
830.87	870.00
831.12	882.00
831.37	903.00
831.62	933.00
831.86	866.00
832.11	856.00
832.36	858.00
832.61	905.00
832.86	886.00
833.10	897.00
833.35	880.00
833.60	896.00
833.85	869.00
834.10	896.00
834.35	902.00
834.59	926.00
834.84	893.00
835.09	890.00
835.34	870.00
835.59	890.00
835.83	881.00
836.08	897.00
836.33	905.00
836.58	906.00
836.83	873.00
837.07	876.00
837.32	891.00
837.57	876.00
837.82	862.00
838.06	910.00
838.31	907.00
838.56	921.00
838.81	858.00
839.06	892.00
839.30	884.00
839.55	906.00
839.80	858.00
840.05	868.00
840.30	909.00
840.54	944.00
840.79	877.00
841.04	894.00
841.29	892.00
841.53	905.00
841.78	881.00
842.03	855.00
842.28	870.00
842.53	878.00
842.77	866.00
843.02	890.00
843.27	883.00
843.52	909.00
843.76	874.00
844.01	897.00
844.26	882.00
844.51	897.00
844.75	871.00
845.00	866.00
845.25	873.00
845.50	892.00
845.75	876.00
845.99	912.00
846.24	884.00
846.49	906.00
846.74	862.00
846.98	858.00
847.23	854.00
847.48	889.00
847.73	857.00
847.97	892.00
848.22	914.00
848.47	902.00
848.72	885.00
848.96	876.00
849.21	892.00
849.46	862.00
849.71	858.00
849.95	879.00
850.20	873.00
850.45	898.00
850.70	849.00
850.94	878.00
851.19	867.00
851.44	883.00
851.69	836.00
851.93	895.00
852.18	910.00
852.43	904.00
852.68	867.00
852.92	899.00
853.17	924.00
853.42	911.00
853.66	882.00
853.91	905.00
854.16	887.00
854.41	926.00
854.65	870.00
854.90	863.00
855.15	875.00
855.40	900.00
855.64	877.00
855.89	879.00
856.14	878.00
856.39	877.00
856.63	852.00
856.88	875.00
857.13	868.00
857.37	872.00
857.62	849.00
857.87	847.00
858.12	870.00
858.36	917.00
858.61	828.00
858.86	863.00
859.10	888.00
859.35	896.00
859.60	857.00
859.85	852.00
860.09	849.00
860.34	898.00
860.59	882.00
860.83	894.00
861.08	884.00
861.33	918.00
861.58	867.00
861.82	857.00
862.07	874.00
862.32	889.00
862.56	850.00
862.81	870.00
863.06	874.00
863.30	895.00
863.55	870.00
863.80	874.00
864.05	884.00
864.29	879.00
864.54	874.00
864.79	881.00
865.03	900.00
865.28	922.00
865.53	885.00
865.77	865.00
866.02	890.00
866.27	894.00
866.51	877.00
866.76	853.00
867.01	852.00
867.26	892.00
867.50	861.00
867.75	855.00
868.00	885.00
868.24	912.00
868.49	868.00
868.74	882.00
868.98	882.00
869.23	885.00
869.48	881.00
869.72	879.00
869.97	884.00
870.22	906.00
870.46	870.00
870.71	880.00
870.96	874.00
871.20	898.00
871.45	849.00
871.70	875.00
871.94	914.00
872.19	924.00
872.44	878.00
872.68	865.00
872.93	870.00
873.18	893.00
873.42	853.00
873.67	867.00
873.92	898.00
874.16	893.00
874.41	878.00
874.66	893.00
874.90	890.00
875.15	913.00
875.40	889.00
875.64	890.00
875.89	873.00
876.14	893.00
876.38	889.00
876.63	875.00
876.88	891.00
877.12	894.00
877.37	849.00
877.62	882.00
877.86	876.00
878.11	895.00
878.36	849.00
878.60	873.00
878.85	876.00
879.09	896.00
879.34	866.00
879.59	884.00
879.83	919.00
880.08	932.00
880.33	890.00
880.57	888.00
880.82	889.00
881.07	914.00
881.31	876.00
881.56	873.00
881.80	872.00
882.05	888.00
882.30	840.00
882.54	867.00
882.79	911.00
883.04	955.00
883.28	902.00
883.53	884.00
883.77	887.00
884.02	903.00
884.27	862.00
884.51	857.00
884.76	877.00
885.01	899.00
885.25	848.00
885.50	895.00
885.74	881.00
885.99	913.00
886.24	874.00
886.48	873.00
886.73	903.00
886.98	919.00
887.22	876.00
887.47	892.00
887.71	900.00
887.96	897.00
888.21	885.00
888.45	866.00
888.70	872.00
888.94	911.00
889.19	869.00
889.44	871.00
889.68	876.00
889.93	903.00
890.17	884.00
890.42	870.00
890.67	908.00
890.91	984.00
891.16	871.00
891.40	861.00
891.65	878.00
891.90	917.00
892.14	857.00
892.39	880.00
892.63	892.00
892.88	926.00
893.13	884.00
893.37	864.00
893.62	876.00
893.86	915.00
894.11	869.00
894.36	868.00
894.60	856.00
894.85	873.00
895.09	861.00
895.34	899.00
895.59	879.00
895.83	896.00
896.08	864.00
896.32	866.00
896.57	874.00
896.81	890.00
897.06	872.00
897.31	865.00
897.55	895.00
897.80	894.00
898.04	858.00
898.29	875.00
898.53	894.00
898.78	921.00
899.03	898.00
899.27	884.00
899.52	909.00
899.76	897.00
900.01	856.00
900.25	878.00
900.50	890.00
900.75	904.00
900.99	886.00
901.24	943.00
901.48	892.00
901.73	896.00
901.97	856.00
902.22	880.00
902.47	901.00
902.71	906.00
902.96	863.00
903.20	889.00
903.45	915.00
903.69	919.00
903.94	892.00
904.18	853.00
904.43	882.00
904.68	885.00
904.92	855.00
905.17	881.00
905.41	914.00
905.66	922.00
905.90	918.00
906.15	884.00
906.39	888.00
906.64	877.00
906.88	854.00
907.13	850.00
907.38	894.00
907.62	912.00
907.87	867.00
908.11	884.00
908.36	881.00
908.60	894.00
908.85	818.00
909.09	869.00
909.34	890.00
909.58	893.00
909.83	866.00
910.07	866.00
910.32	914.00
910.56	917.00
910.81	846.00
911.06	883.00
911.30	897.00
911.55	894.00
911.79	860.00
912.04	880.00
912.28	881.00
912.53	900.00
912.77	873.00
913.02	881.00
913.26	866.00
913.51	881.00
913.75	874.00
914.00	874.00
914.24	883.00
914.49	895.00
914.73	853.00
914.98	912.00
915.22	922.00
915.47	903.00
915.71	857.00
915.96	887.00
916.20	884.00
916.45	871.00
916.69	856.00
916.94	887.00
917.18	894.00
917.43	893.00
917.67	855.00
917.92	853.00
918.16	892.00
918.41	905.00
918.65	865.00
918.90	862.00
919.14	840.00
919.39	891.00
919.63	872.00
919.88	861.00
920.12	890.00
920.37	899.00
920.61	860.00
920.86	891.00
921.10	900.00
921.35	878.00
921.59	858.00
921.84	884.00
922.08	897.00
922.33	919.00
922.57	862.00
922.82	861.00
923.06	888.00
923.31	897.00
923.55	849.00
923.80	864.00
924.04	874.00
924.29	896.00
924.53	867.00
924.78	881.00
925.02	866.00
925.27	902.00
925.51	871.00
925.76	889.00
926.00	880.00
926.25	880.00
926.49	864.00
926.73	896.00
926.98	892.00
927.22	908.00
927.47	897.00
927.71	881.00
927.96	889.00
928.20	889.00
928.45	887.00
928.69	925.00
928.94	910.00
929.18	885.00
929.43	898.00
929.67	897.00
929.91	904.00
930.16	889.00
930.40	846.00
930.65	856.00
930.89	879.00
931.14	926.00
931.38	877.00
931.63	898.00
931.87	888.00
932.12	874.00
932.36	844.00
932.60	869.00
932.85	907.00
933.09	875.00
933.34	828.00
933.58	885.00
933.83	873.00
934.07	905.00
934.32	854.00
934.56	882.00
934.80	918.00
935.05	922.00
935.29	881.00
935.54	888.00
935.78	870.00
936.03	894.00
936.27	851.00
936.52	858.00
936.76	871.00
937.00	882.00
937.25	879.00
937.49	906.00
937.74	908.00
937.98	910.00
938.23	849.00
938.47	865.00
938.71	886.00
938.96	892.00
939.20	854.00
939.45	872.00
939.69	873.00
939.94	900.00
940.18	849.00
940.42	875.00
940.67	893.00
940.91	893.00
941.16	870.00
941.40	855.00
941.64	866.00
941.89	898.00
942.13	865.00
942.38	891.00
942.62	961.00
942.87	913.00
943.11	870.00
943.35	881.00
943.60	884.00
943.84	933.00
944.09	902.00
944.33	893.00
944.57	915.00
944.82	874.00
945.06	856.00
945.31	889.00
945.55	881.00
945.79	908.00
946.04	861.00
946.28	871.00
946.53	898.00
946.77	901.00
947.01	829.00
947.26	883.00
947.50	874.00
947.75	901.00
947.99	870.00
948.23	882.00
948.48	885.00
948.72	911.00
948.97	878.00
949.21	875.00
949.45	887.00
949.70	902.00
949.94	873.00
950.18	883.00
950.43	895.00
950.67	905.00
950.92	876.00
951.16	875.00
951.40	875.00
951.65	880.00
951.89	878.00
952.13	875.00
952.38	890.00
952.62	878.00
952.87	843.00
953.11	899.00
953.35	913.00
953.60	912.00
953.84	817.00
954.08	836.00
954.33	880.00
954.57	892.00
954.82	880.00
955.06	871.00
955.30	880.00
955.55	886.00
955.79	885.00
956.03	868.00
956.28	873.00
956.52	873.00
956.76	866.00
957.01	886.00
957.25	873.00
957.50	888.00
957.74	860.00
957.98	873.00
958.23	890.00
958.47	879.00
958.71	887.00
958.96	895.00
959.20	936.00
959.44	897.00
959.69	869.00
959.93	909.00
960.17	899.00
960.42	904.00
960.66	883.00
960.90	885.00
961.15	895.00
961.39	901.00
961.64	863.00
961.88	875.00
962.12	909.00
962.37	904.00
962.61	861.00
962.85	881.00
963.10	904.00
963.34	889.00
963.58	849.00
963.83	888.00
964.07	893.00
964.31	911.00
964.56	897.00
964.80	863.00
965.04	893.00
965.29	880.00
965.53	852.00
965.77	854.00
966.02	836.00
966.26	861.00
966.50	853.00
966.74	871.00
966.99	914.00
967.23	905.00
967.47	865.00
967.72	870.00
967.96	888.00
968.20	895.00
968.45	844.00
968.69	867.00
968.93	873.00
969.18	883.00
969.42	889.00
969.66	883.00
969.91	873.00
970.15	893.00
970.39	859.00
970.64	881.00
970.88	904.00
971.12	902.00
971.36	869.00
971.61	857.00
971.85	876.00
972.09	897.00
972.34	861.00
972.58	879.00
972.82	900.00
973.07	919.00
973.31	846.00
973.55	860.00
973.79	892.00
974.04	912.00
974.28	866.00
974.52	869.00
974.77	872.00
975.01	895.00
975.25	864.00
975.50	905.00
975.74	916.00
975.98	907.00
976.22	869.00
976.47	869.00
976.71	887.00
976.95	905.00
977.20	898.00
977.44	891.00
977.68	886.00
977.92	896.00
978.17	859.00
978.41	876.00
978.65	905.00
978.90	876.00
979.14	884.00
979.38	890.00
979.62	888.00
979.87	887.00
980.11	850.00
980.35	877.00
980.59	889.00
980.84	891.00
981.08	863.00
981.32	860.00
981.57	888.00
981.81	910.00
982.05	874.00
982.29	863.00
982.54	880.00
982.78	892.00
983.02	856.00
983.26	875.00
983.51	918.00
983.75	905.00
983.99	857.00
984.23	896.00
984.48	907.00
984.72	916.00
984.96	859.00
985.20	865.00
985.45	930.00
985.69	910.00
985.93	881.00
986.17	899.00
986.42	878.00
986.66	895.00
986.90	841.00
987.14	843.00
987.39	875.00
987.63	861.00
987.87	855.00
988.11	876.00
988.36	905.00
988.60	889.00
988.84	874.00
989.08	848.00
989.33	896.00
989.57	912.00
989.81	861.00
990.05	856.00
990.30	885.00
990.54	882.00
990.78	873.00
991.02	871.00
991.27	897.00
991.51	894.00
991.75	873.00
991.99	900.00
992.23	870.00
992.48	866.00
992.72	849.00
992.96	852.00
993.20	869.00
993.45	881.00
993.69	880.00
993.93	874.00
994.17	899.00
994.41	886.00
994.66	829.00
994.90	861.00
995.14	909.00
995.38	880.00
995.63	863.00
995.87	858.00
996.11	917.00
996.35	894.00
996.59	844.00
996.84	852.00
997.08	894.00
997.32	888.00
997.56	869.00
997.80	866.00
998.05	883.00
998.29	877.00
998.53	856.00
998.77	882.00
999.01	903.00
999.26	897.00
999.50	852.00
999.74	851.00
999.98	873.00
1000.22	889.00
1000.47	837.00
1000.71	856.00
1000.95	896.00
1001.19	887.00
1001.43	869.00
1001.68	871.00
1001.92	881.00
1002.16	869.00
1002.40	851.00
1002.64	880.00
1002.89	888.00
1003.13	900.00
1003.37	874.00
1003.61	859.00
1003.85	884.00
1004.10	889.00
1004.34	865.00
1004.58	867.00
1004.82	893.00
1005.06	885.00
1005.30	857.00
1005.55	869.00
1005.79	889.00
1006.03	883.00
1006.27	891.00
1006.51	879.00
1006.76	876.00
1007.00	909.00
1007.24	880.00
1007.48	877.00
1007.72	901.00
1007.96	896.00
1008.21	883.00
1008.45	892.00
1008.69	901.00
1008.93	908.00
1009.17	882.00
1009.41	908.00
1009.66	921.00
1009.90	894.00
1010.14	859.00
1010.38	880.00
1010.62	903.00
1010.86	910.00
1011.10	876.00
1011.35	868.00
1011.59	890.00
1011.83	858.00
1012.07	837.00
1012.31	872.00
1012.55	894.00
1012.80	902.00
1013.04	873.00
1013.28	877.00
1013.52	878.00
1013.76	903.00
1014.00	852.00
1014.24	869.00
1014.49	901.00
1014.73	928.00
1014.97	900.00
1015.21	898.00
1015.45	920.00
1015.69	877.00
1015.93	868.00
1016.18	872.00
1016.42	923.00
1016.66	908.00
1016.90	873.00
1017.14	863.00
1017.38	884.00
1017.62	889.00
1017.87	860.00
1018.11	873.00
1018.35	902.00
1018.59	888.00
1018.83	859.00
1019.07	864.00
1019.31	898.00
1019.55	916.00
1019.80	864.00
1020.04	888.00
1020.28	887.00
1020.52	889.00
1020.76	860.00
1021.00	853.00
1021.24	873.00
1021.48	874.00
1021.73	862.00
1021.97	862.00
1022.21	888.00
1022.45	907.00
1022.69	863.00
1022.93	847.00
1023.17	892.00
1023.41	931.00
1023.65	870.00
1023.90	902.00
1024.14	899.00
1024.38	875.00
1024.62	850.00
1024.86	876.00
1025.10	914.00
1025.34	894.00
1025.58	848.00
1025.82	858.00
1026.07	894.00
1026.31	881.00
1026.55	852.00
1026.79	848.00
1027.03	894.00
1027.27	896.00
1027.51	848.00
1027.75	850.00
1027.99	862.00
1028.23	908.00
1028.47	874.00
1028.72	861.00
1028.96	875.00
1029.20	876.00
1029.44	872.00
1029.68	878.00
1029.92	887.00
1030.16	888.00
1030.40	837.00
1030.64	863.00
1030.88	869.00
1031.12	872.00
1031.37	839.00
1031.61	865.00
1031.85	902.00
1032.09	913.00
1032.33	873.00
1032.57	910.00
1032.81	886.00
1033.05	901.00
1033.29	878.00
1033.53	866.00
1033.77	944.00
1034.01	928.00
1034.25	892.00
1034.50	896.00
1034.74	895.00
1034.98	901.00
1035.22	870.00
1035.46	888.00
1035.70	911.00
1035.94	909.00
1036.18	890.00
1036.42	899.00
1036.66	879.00
1036.90	878.00
1037.14	836.00
1037.38	860.00
1037.62	889.00
1037.86	883.00
1038.10	867.00
1038.35	869.00
1038.59	892.00
1038.83	901.00
1039.07	879.00
1039.31	892.00
1039.55	861.00
1039.79	877.00
1040.03	845.00
1040.27	844.00
1040.51	895.00
1040.75	918.00
1040.99	885.00
1041.23	888.00
1041.47	896.00
1041.71	928.00
1041.95	881.00
1042.19	865.00
1042.43	912.00
1042.67	929.00
1042.91	881.00
1043.15	867.00
1043.39	913.00
1043.64	903.00
1043.88	855.00
1044.12	872.00
1044.36	924.00
1044.60	907.00
1044.84	896.00
1045.08	885.00
1045.32	893.00
1045.56	904.00
1045.80	882.00
1046.04	885.00
1046.28	908.00
1046.52	896.00
1046.76	855.00
1047.00	854.00
1047.24	907.00
1047.48	898.00
1047.72	854.00
1047.96	868.00
1048.20	914.00
1048.44	894.00
1048.68	863.00
1048.92	874.00
1049.16	891.00
1049.40	906.00
1049.64	873.00
1049.88	901.00
1050.12	897.00
1050.36	897.00
1050.60	862.00
1050.84	879.00
1051.08	886.00
1051.32	885.00
1051.56	884.00
1051.80	871.00
1052.04	902.00
1052.28	916.00
1052.52	869.00
1052.76	847.00
1053.00	872.00
1053.24	901.00
1053.48	861.00
1053.72	852.00
1053.96	884.00
1054.20	904.00
1054.44	892.00
1054.68	890.00
1054.92	893.00
1055.16	886.00
1055.40	865.00
1055.64	882.00
1055.88	901.00
1056.12	925.00
1056.36	832.00
1056.60	849.00
1056.84	899.00
1057.08	901.00
1057.32	876.00
1057.56	853.00
1057.80	867.00
1058.04	896.00
1058.28	863.00
1058.52	871.00
1058.76	896.00
1059.00	915.00
1059.24	863.00
1059.48	856.00
1059.72	893.00
1059.96	882.00
1060.20	889.00
1060.44	896.00
1060.68	927.00
1060.92	896.00
1061.16	840.00
1061.40	862.00
1061.64	895.00
1061.88	887.00
1062.11	866.00
1062.35	864.00
1062.59	886.00
1062.83	920.00
1063.07	861.00
1063.31	853.00
1063.55	880.00
1063.79	909.00
1064.03	859.00
1064.27	849.00
1064.51	877.00
1064.75	901.00
1064.99	867.00
1065.23	883.00
1065.47	879.00
1065.71	906.00
1065.95	876.00
1066.19	872.00
1066.43	902.00
1066.67	906.00
1066.91	890.00
1067.15	867.00
1067.38	876.00
1067.62	904.00
1067.86	876.00
1068.10	884.00
1068.34	924.00
1068.58	928.00
1068.82	876.00
1069.06	845.00
1069.30	874.00
1069.54	918.00
1069.78	900.00
1070.02	883.00
1070.26	904.00
1070.50	914.00
1070.74	880.00
1070.98	886.00
1071.21	902.00
1071.45	898.00
1071.69	854.00
1071.93	863.00
1072.17	883.00
1072.41	883.00
1072.65	883.00
1072.89	909.00
1073.13	889.00
1073.37	876.00
1073.61	860.00
1073.85	894.00
1074.09	876.00
1074.32	885.00
1074.56	874.00
1074.80	958.00
1075.04	1176.00
1075.28	1006.00
1075.52	884.00
1075.76	896.00
1076.00	921.00
1076.24	906.00
1076.48	873.00
1076.72	881.00
1076.96	897.00
1077.19	897.00
1077.43	870.00
1077.67	897.00
1077.91	885.00
1078.15	872.00
1078.39	866.00
1078.63	861.00
1078.87	883.00
1079.11	891.00
1079.35	848.00
1079.58	850.00
1079.82	877.00
1080.06	877.00
1080.30	852.00
1080.54	883.00
1080.78	923.00
1081.02	886.00
1081.26	860.00
1081.50	881.00
1081.74	901.00
1081.97	899.00
1082.21	853.00
1082.45	872.00
1082.69	894.00
1082.93	880.00
1083.17	873.00
1083.41	868.00
1083.65	917.00
1083.88	924.00
1084.12	886.00
1084.36	900.00
1084.60	897.00
1084.84	909.00
1085.08	848.00
1085.32	865.00
1085.56	905.00
1085.80	900.00
1086.03	869.00
1086.27	849.00
1086.51	874.00
1086.75	888.00
1086.99	858.00
1087.23	849.00
1087.47	873.00
1087.70	870.00
1087.94	859.00
1088.18	897.00
1088.42	935.00
1088.66	890.00
1088.90	830.00
1089.14	860.00
1089.38	882.00
1089.61	905.00
1089.85	869.00
1090.09	834.00
1090.33	910.00
1090.57	925.00
1090.81	839.00
1091.05	879.00
1091.28	897.00
1091.52	913.00
1091.76	867.00
1092.00	878.00
1092.24	910.00
1092.48	938.00
1092.71	860.00
1092.95	887.00
1093.19	897.00
1093.43	883.00
1093.67	857.00
1093.91	866.00
1094.15	898.00
1094.38	901.00
1094.62	852.00
1094.86	856.00
1095.10	874.00
1095.34	879.00
1095.58	867.00
1095.81	878.00
1096.05	916.00
1096.29	904.00
1096.53	851.00
1096.77	868.00
1097.01	876.00
1097.24	910.00
1097.48	873.00
1097.72	875.00
1097.96	905.00
1098.20	900.00
1098.44	844.00
1098.67	814.00
1098.91	876.00
1099.15	902.00
1099.39	867.00
1099.63	896.00
1099.86	892.00
1100.10	881.00
1100.34	863.00
1100.58	869.00
1100.82	860.00
1101.06	877.00
1101.29	845.00
1101.53	883.00
1101.77	917.00
1102.01	880.00
1102.25	882.00
1102.48	874.00
1102.72	911.00
1102.96	895.00
1103.20	852.00
1103.44	867.00
1103.67	879.00
1103.91	899.00
1104.15	848.00
1104.39	874.00
1104.63	905.00
1104.86	880.00
1105.10	853.00
1105.34	896.00
1105.58	879.00
1105.82	883.00
1106.05	868.00
1106.29	886.00
1106.53	884.00
1106.77	916.00
1107.01	854.00
1107.24	898.00
1107.48	935.00
1107.72	902.00
1107.96	849.00
1108.20	861.00
1108.43	880.00
1108.67	877.00
1108.91	870.00
1109.15	869.00
1109.39	866.00
1109.62	897.00
1109.86	845.00
1110.10	856.00
1110.34	929.00
1110.57	926.00
1110.81	858.00
1111.05	880.00
1111.29	934.00
1111.53	931.00
1111.76	856.00
1112.00	900.00
1112.24	921.00
1112.48	902.00
1112.71	854.00
1112.95	882.00
1113.19	907.00
1113.43	889.00
1113.66	840.00
1113.90	880.00
1114.14	901.00
1114.38	907.00
1114.62	853.00
1114.85	890.00
1115.09	891.00
1115.33	931.00
1115.57	872.00
1115.80	873.00
1116.04	897.00
1116.28	898.00
1116.52	863.00
1116.75	884.00
1116.99	910.00
1117.23	923.00
1117.47	894.00
1117.70	899.00
1117.94	962.00
1118.18	904.00
1118.42	872.00
1118.65	900.00
1118.89	916.00
1119.13	917.00
1119.37	867.00
1119.60	887.00
1119.84	907.00
>>>>>End Processed Spectral Data<<<<<
