SpectraSuite Data File
++++++++++++++++++++++++++++++++++++
Date: Fri Dec 06 16:14:17 CET 2024
User: student
Dark Spectrum Present: Yes
Reference Spectrum Present: Yes
Number of Sampled Component Spectra: 1
Spectrometers: HR4C155
Integration Time (usec): 100000 (HR4C155)
Spectra Averaged: 1 (HR4C155)
Boxcar Smoothing: 0 (HR4C155)
Correct for Electrical Dark: No (HR4C155)
Strobe/Lamp Enabled: No (HR4C155)
Correct for Detector Non-linearity: No (HR4C155)
Correct for Stray Light: No (HR4C155)
Number of Pixels in Processed Spectrum: 3648
>>>>>Begin Processed Spectral Data<<<<<
195.39	723.00
195.66	723.00
195.93	723.00
196.20	669.00
196.46	715.00
196.73	846.00
197.00	860.00
197.27	847.00
197.54	863.00
197.81	879.00
198.08	863.00
198.35	884.00
198.61	893.00
198.88	877.00
199.15	853.00
199.42	859.00
199.69	883.00
199.96	864.00
200.23	888.00
200.49	902.00
200.76	906.00
201.03	882.00
201.30	882.00
201.57	941.00
201.84	947.00
202.11	912.00
202.38	922.00
202.64	917.00
202.91	941.00
203.18	885.00
203.45	941.00
203.72	1006.00
203.99	929.00
204.25	919.00
204.52	911.00
204.79	915.00
205.06	926.00
205.33	884.00
205.60	912.00
205.87	941.00
206.13	950.00
206.40	910.00
206.67	902.00
206.94	940.00
207.21	939.00
207.48	913.00
207.75	901.00
208.01	960.00
208.28	952.00
208.55	890.00
208.82	927.00
209.09	932.00
209.36	940.00
209.62	907.00
209.89	935.00
210.16	965.00
210.43	992.00
210.70	898.00
210.97	906.00
211.23	964.00
211.50	973.00
211.77	923.00
212.04	932.00
212.31	926.00
212.58	955.00
212.84	928.00
213.11	932.00
213.38	887.00
213.65	914.00
213.92	913.00
214.18	918.00
214.45	965.00
214.72	948.00
214.99	886.00
215.26	907.00
215.53	895.00
215.79	931.00
216.06	924.00
216.33	919.00
216.60	897.00
216.87	937.00
217.13	883.00
217.40	915.00
217.67	933.00
217.94	965.00
218.21	894.00
218.48	938.00
218.74	1001.00
219.01	955.00
219.28	883.00
219.55	901.00
219.82	932.00
220.08	950.00
220.35	908.00
220.62	927.00
220.89	953.00
221.16	973.00
221.42	938.00
221.69	929.00
221.96	948.00
222.23	967.00
222.50	946.00
222.76	941.00
223.03	939.00
223.30	911.00
223.57	903.00
223.84	898.00
224.10	902.00
224.37	933.00
224.64	898.00
224.91	913.00
225.18	960.00
225.44	964.00
225.71	924.00
225.98	948.00
226.25	969.00
226.51	961.00
226.78	901.00
227.05	924.00
227.32	938.00
227.59	922.00
227.85	918.00
228.12	919.00
228.39	970.00
228.66	973.00
228.92	964.00
229.19	946.00
229.46	943.00
229.73	913.00
230.00	902.00
230.26	932.00
230.53	961.00
230.80	947.00
231.07	876.00
231.33	891.00
231.60	937.00
231.87	964.00
232.14	913.00
232.41	952.00
232.67	937.00
232.94	937.00
233.21	899.00
233.48	927.00
233.74	941.00
234.01	932.00
234.28	899.00
234.55	933.00
234.81	928.00
235.08	970.00
235.35	922.00
235.62	896.00
235.88	917.00
236.15	957.00
236.42	931.00
236.69	929.00
236.95	945.00
237.22	936.00
237.49	904.00
237.76	894.00
238.02	948.00
238.29	965.00
238.56	896.00
238.83	897.00
239.09	932.00
239.36	967.00
239.63	921.00
239.90	914.00
240.16	961.00
240.43	1001.00
240.70	909.00
240.97	918.00
241.23	909.00
241.50	926.00
241.77	910.00
242.04	921.00
242.30	900.00
242.57	921.00
242.84	886.00
243.11	912.00
243.37	887.00
243.64	955.00
243.91	917.00
244.18	917.00
244.44	897.00
244.71	894.00
244.98	907.00
245.24	904.00
245.51	948.00
245.78	969.00
246.05	904.00
246.31	909.00
246.58	934.00
246.85	911.00
247.12	898.00
247.38	924.00
247.65	926.00
247.92	951.00
248.18	912.00
248.45	899.00
248.72	924.00
248.99	939.00
249.25	893.00
249.52	897.00
249.79	930.00
250.05	921.00
250.32	889.00
250.59	900.00
250.86	899.00
251.12	913.00
251.39	893.00
251.66	926.00
251.92	947.00
252.19	944.00
252.46	892.00
252.73	943.00
252.99	953.00
253.26	952.00
253.53	907.00
253.79	924.00
254.06	932.00
254.33	919.00
254.60	883.00
254.86	888.00
255.13	925.00
255.40	955.00
255.66	910.00
255.93	919.00
256.20	933.00
256.46	945.00
256.73	918.00
257.00	925.00
257.26	943.00
257.53	930.00
257.80	907.00
258.07	917.00
258.33	954.00
258.60	936.00
258.87	875.00
259.13	909.00
259.40	907.00
259.67	949.00
259.93	908.00
260.20	931.00
260.47	957.00
260.73	923.00
261.00	897.00
261.27	916.00
261.53	943.00
261.80	943.00
262.07	884.00
262.34	917.00
262.60	892.00
262.87	926.00
263.14	901.00
263.40	924.00
263.67	911.00
263.94	922.00
264.20	901.00
264.47	895.00
264.74	901.00
265.00	902.00
265.27	880.00
265.54	901.00
265.80	945.00
266.07	951.00
266.34	888.00
266.60	912.00
266.87	939.00
267.14	940.00
267.40	891.00
267.67	890.00
267.94	955.00
268.20	933.00
268.47	870.00
268.74	888.00
269.00	922.00
269.27	919.00
269.54	878.00
269.80	893.00
270.07	931.00
270.33	908.00
270.60	898.00
270.87	919.00
271.13	897.00
271.40	935.00
271.67	868.00
271.93	875.00
272.20	926.00
272.47	898.00
272.73	864.00
273.00	902.00
273.27	915.00
273.53	973.00
273.80	905.00
274.07	893.00
274.33	913.00
274.60	944.00
274.86	912.00
275.13	900.00
275.40	907.00
275.66	948.00
275.93	902.00
276.20	890.00
276.46	897.00
276.73	909.00
277.00	907.00
277.26	922.00
277.53	961.00
277.79	926.00
278.06	887.00
278.33	937.00
278.59	934.00
278.86	903.00
279.13	894.00
279.39	913.00
279.66	952.00
279.93	955.00
280.19	916.00
280.46	912.00
280.72	924.00
280.99	938.00
281.26	900.00
281.52	901.00
281.79	937.00
282.05	917.00
282.32	890.00
282.59	902.00
282.85	954.00
283.12	935.00
283.39	915.00
283.65	921.00
283.92	917.00
284.18	931.00
284.45	905.00
284.72	922.00
284.98	918.00
285.25	901.00
285.51	920.00
285.78	919.00
286.05	934.00
286.31	917.00
286.58	870.00
286.84	894.00
287.11	914.00
287.38	924.00
287.64	924.00
287.91	898.00
288.17	933.00
288.44	934.00
288.71	864.00
288.97	905.00
289.24	943.00
289.50	914.00
289.77	906.00
290.04	890.00
290.30	907.00
290.57	949.00
290.83	879.00
291.10	885.00
291.37	905.00
291.63	918.00
291.90	938.00
292.16	919.00
292.43	928.00
292.70	911.00
292.96	875.00
293.23	885.00
293.49	891.00
293.76	922.00
294.02	881.00
294.29	890.00
294.56	925.00
294.82	929.00
295.09	861.00
295.35	884.00
295.62	952.00
295.89	954.00
296.15	888.00
296.42	885.00
296.68	918.00
296.95	915.00
297.21	900.00
297.48	893.00
297.75	927.00
298.01	960.00
298.28	905.00
298.54	931.00
298.81	909.00
299.07	933.00
299.34	885.00
299.61	898.00
299.87	943.00
300.14	920.00
300.40	915.00
300.67	908.00
300.93	924.00
301.20	984.00
301.46	895.00
301.73	906.00
302.00	937.00
302.26	906.00
302.53	896.00
302.79	902.00
303.06	927.00
303.32	985.00
303.59	893.00
303.85	881.00
304.12	916.00
304.39	931.00
304.65	888.00
304.92	893.00
305.18	928.00
305.45	930.00
305.71	900.00
305.98	913.00
306.24	926.00
306.51	911.00
306.77	897.00
307.04	902.00
307.31	924.00
307.57	937.00
307.84	884.00
308.10	905.00
308.37	890.00
308.63	905.00
308.90	888.00
309.16	921.00
309.43	930.00
309.69	898.00
309.96	898.00
310.22	893.00
310.49	922.00
310.76	939.00
311.02	873.00
311.29	903.00
311.55	905.00
311.82	906.00
312.08	913.00
312.35	925.00
312.61	919.00
312.88	944.00
313.14	900.00
313.41	874.00
313.67	876.00
313.94	923.00
314.20	921.00
314.47	913.00
314.73	896.00
315.00	900.00
315.26	881.00
315.53	921.00
315.79	922.00
316.06	937.00
316.32	907.00
316.59	924.00
316.85	920.00
317.12	915.00
317.39	872.00
317.65	897.00
317.92	916.00
318.18	932.00
318.45	894.00
318.71	946.00
318.98	955.00
319.24	935.00
319.51	915.00
319.77	899.00
320.04	896.00
320.30	905.00
320.57	892.00
320.83	894.00
321.10	891.00
321.36	892.00
321.63	869.00
321.89	896.00
322.16	955.00
322.42	927.00
322.69	892.00
322.95	894.00
323.22	916.00
323.48	924.00
323.75	892.00
324.01	900.00
324.28	909.00
324.54	934.00
324.80	896.00
325.07	920.00
325.33	934.00
325.60	909.00
325.86	891.00
326.13	886.00
326.39	902.00
326.66	876.00
326.92	845.00
327.19	892.00
327.45	954.00
327.72	954.00
327.98	889.00
328.25	872.00
328.51	907.00
328.78	915.00
329.04	893.00
329.31	912.00
329.57	910.00
329.84	916.00
330.10	887.00
330.37	904.00
330.63	950.00
330.89	968.00
331.16	893.00
331.42	896.00
331.69	947.00
331.95	926.00
332.22	906.00
332.48	940.00
332.75	924.00
333.01	872.00
333.28	878.00
333.54	893.00
333.81	933.00
334.07	946.00
334.34	905.00
334.60	901.00
334.86	945.00
335.13	967.00
335.39	909.00
335.66	902.00
335.92	952.00
336.19	935.00
336.45	845.00
336.72	862.00
336.98	898.00
337.24	913.00
337.51	879.00
337.77	902.00
338.04	925.00
338.30	929.00
338.57	892.00
338.83	897.00
339.10	930.00
339.36	940.00
339.63	888.00
339.89	871.00
340.15	906.00
340.42	927.00
340.68	910.00
340.95	901.00
341.21	921.00
341.48	926.00
341.74	878.00
342.00	870.00
342.27	917.00
342.53	925.00
342.80	888.00
343.06	900.00
343.33	927.00
343.59	948.00
343.85	883.00
344.12	906.00
344.38	981.00
344.65	957.00
344.91	885.00
345.18	893.00
345.44	890.00
345.70	902.00
345.97	860.00
346.23	881.00
346.50	932.00
346.76	926.00
347.03	921.00
347.29	905.00
347.55	909.00
347.82	922.00
348.08	852.00
348.35	886.00
348.61	967.00
348.87	947.00
349.14	880.00
349.40	890.00
349.67	928.00
349.93	910.00
350.20	893.00
350.46	909.00
350.72	938.00
350.99	909.00
351.25	900.00
351.52	891.00
351.78	912.00
352.04	924.00
352.31	901.00
352.57	901.00
352.84	887.00
353.10	916.00
353.36	903.00
353.63	905.00
353.89	915.00
354.16	932.00
354.42	902.00
354.68	901.00
354.95	955.00
355.21	946.00
355.48	878.00
355.74	921.00
356.00	946.00
356.27	959.00
356.53	884.00
356.80	869.00
357.06	917.00
357.32	943.00
357.59	922.00
357.85	903.00
358.11	947.00
358.38	937.00
358.64	900.00
358.91	901.00
359.17	902.00
359.43	925.00
359.70	928.00
359.96	913.00
360.22	938.00
360.49	925.00
360.75	912.00
361.02	894.00
361.28	895.00
361.54	925.00
361.81	885.00
362.07	911.00
362.33	891.00
362.60	896.00
362.86	883.00
363.13	897.00
363.39	934.00
363.65	932.00
363.92	865.00
364.18	877.00
364.44	907.00
364.71	927.00
364.97	902.00
365.24	896.00
365.50	936.00
365.76	930.00
366.03	884.00
366.29	917.00
366.55	927.00
366.82	921.00
367.08	868.00
367.34	876.00
367.61	923.00
367.87	932.00
368.13	900.00
368.40	907.00
368.66	953.00
368.93	938.00
369.19	870.00
369.45	889.00
369.72	935.00
369.98	908.00
370.24	868.00
370.51	895.00
370.77	913.00
371.03	917.00
371.30	900.00
371.56	922.00
371.82	936.00
372.09	923.00
372.35	921.00
372.61	914.00
372.88	915.00
373.14	939.00
373.40	898.00
373.67	898.00
373.93	919.00
374.19	914.00
374.46	884.00
374.72	876.00
374.98	917.00
375.25	926.00
375.51	908.00
375.77	921.00
376.04	922.00
376.30	929.00
376.56	879.00
376.83	900.00
377.09	925.00
377.35	935.00
377.62	923.00
377.88	897.00
378.14	902.00
378.41	924.00
378.67	897.00
378.93	883.00
379.20	925.00
379.46	907.00
379.72	882.00
379.99	870.00
380.25	882.00
380.51	897.00
380.77	897.00
381.04	914.00
381.30	934.00
381.56	964.00
381.83	915.00
382.09	902.00
382.35	906.00
382.62	933.00
382.88	901.00
383.14	890.00
383.41	905.00
383.67	910.00
383.93	913.00
384.20	896.00
384.46	920.00
384.72	934.00
384.98	884.00
385.25	914.00
385.51	928.00
385.77	919.00
386.04	874.00
386.30	877.00
386.56	932.00
386.82	966.00
387.09	906.00
387.35	950.00
387.61	997.00
387.88	937.00
388.14	917.00
388.40	909.00
388.67	916.00
388.93	910.00
389.19	903.00
389.45	894.00
389.72	918.00
389.98	928.00
390.24	886.00
390.51	889.00
390.77	926.00
391.03	938.00
391.29	881.00
391.56	893.00
391.82	926.00
392.08	951.00
392.35	909.00
392.61	895.00
392.87	936.00
393.13	951.00
393.40	889.00
393.66	897.00
393.92	922.00
394.18	931.00
394.45	871.00
394.71	891.00
394.97	899.00
395.24	857.00
395.50	860.00
395.76	911.00
396.02	930.00
396.29	904.00
396.55	869.00
396.81	844.00
397.07	897.00
397.34	890.00
397.60	871.00
397.86	877.00
398.12	900.00
398.39	924.00
398.65	885.00
398.91	905.00
399.17	915.00
399.44	877.00
399.70	843.00
399.96	893.00
400.22	916.00
400.49	946.00
400.75	903.00
401.01	885.00
401.27	900.00
401.54	924.00
401.80	894.00
402.06	865.00
402.32	932.00
402.59	922.00
402.85	884.00
403.11	899.00
403.37	889.00
403.64	934.00
403.90	897.00
404.16	890.00
404.42	911.00
404.69	900.00
404.95	886.00
405.21	856.00
405.47	890.00
405.74	925.00
406.00	881.00
406.26	884.00
406.52	921.00
406.79	944.00
407.05	892.00
407.31	889.00
407.57	904.00
407.83	922.00
408.10	848.00
408.36	884.00
408.62	918.00
408.88	914.00
409.15	893.00
409.41	851.00
409.67	881.00
409.93	920.00
410.20	880.00
410.46	891.00
410.72	899.00
410.98	885.00
411.24	868.00
411.51	875.00
411.77	890.00
412.03	908.00
412.29	908.00
412.55	908.00
412.82	908.00
413.08	927.00
413.34	914.00
413.60	911.00
413.87	903.00
414.13	912.00
414.39	851.00
414.65	882.00
414.91	910.00
415.18	898.00
415.44	873.00
415.70	866.00
415.96	903.00
416.22	904.00
416.49	866.00
416.75	880.00
417.01	910.00
417.27	933.00
417.53	912.00
417.80	907.00
418.06	931.00
418.32	940.00
418.58	883.00
418.84	871.00
419.11	911.00
419.37	911.00
419.63	885.00
419.89	893.00
420.15	914.00
420.42	906.00
420.68	874.00
420.94	887.00
421.20	910.00
421.46	919.00
421.72	925.00
421.99	923.00
422.25	914.00
422.51	907.00
422.77	898.00
423.03	910.00
423.30	904.00
423.56	925.00
423.82	913.00
424.08	925.00
424.34	945.00
424.60	912.00
424.87	882.00
425.13	871.00
425.39	886.00
425.65	886.00
425.91	869.00
426.18	882.00
426.44	893.00
426.70	891.00
426.96	862.00
427.22	860.00
427.48	881.00
427.75	901.00
428.01	861.00
428.27	900.00
428.53	941.00
428.79	904.00
429.05	910.00
429.32	906.00
429.58	941.00
429.84	894.00
430.10	902.00
430.36	910.00
430.62	935.00
430.88	919.00
431.15	886.00
431.41	894.00
431.67	916.00
431.93	901.00
432.19	851.00
432.45	901.00
432.72	912.00
432.98	910.00
433.24	921.00
433.50	988.00
433.76	894.00
434.02	890.00
434.28	854.00
434.55	887.00
434.81	918.00
435.07	928.00
435.33	870.00
435.59	872.00
435.85	890.00
436.11	929.00
436.38	872.00
436.64	873.00
436.90	882.00
437.16	905.00
437.42	892.00
437.68	902.00
437.94	912.00
438.21	905.00
438.47	918.00
438.73	910.00
438.99	886.00
439.25	913.00
439.51	887.00
439.77	907.00
440.03	912.00
440.30	920.00
440.56	885.00
440.82	922.00
441.08	931.00
441.34	933.00
441.60	861.00
441.86	898.00
442.12	909.00
442.39	882.00
442.65	857.00
442.91	888.00
443.17	892.00
443.43	907.00
443.69	901.00
443.95	891.00
444.21	903.00
444.47	935.00
444.74	870.00
445.00	906.00
445.26	893.00
445.52	905.00
445.78	878.00
446.04	890.00
446.30	926.00
446.56	915.00
446.82	868.00
447.09	908.00
447.35	928.00
447.61	914.00
447.87	907.00
448.13	894.00
448.39	948.00
448.65	916.00
448.91	875.00
449.17	875.00
449.43	888.00
449.70	904.00
449.96	872.00
450.22	862.00
450.48	897.00
450.74	950.00
451.00	901.00
451.26	887.00
451.52	904.00
451.78	886.00
452.04	864.00
452.31	905.00
452.57	914.00
452.83	889.00
453.09	878.00
453.35	895.00
453.61	893.00
453.87	905.00
454.13	903.00
454.39	913.00
454.65	958.00
454.91	954.00
455.17	871.00
455.44	881.00
455.70	918.00
455.96	932.00
456.22	868.00
456.48	877.00
456.74	890.00
457.00	879.00
457.26	840.00
457.52	863.00
457.78	880.00
458.04	914.00
458.30	867.00
458.56	886.00
458.82	901.00
459.09	887.00
459.35	853.00
459.61	872.00
459.87	909.00
460.13	923.00
460.39	874.00
460.65	877.00
460.91	950.00
461.17	918.00
461.43	844.00
461.69	867.00
461.95	910.00
462.21	904.00
462.47	884.00
462.73	910.00
462.99	936.00
463.26	921.00
463.52	863.00
463.78	876.00
464.04	886.00
464.30	909.00
464.56	876.00
464.82	902.00
465.08	950.00
465.34	946.00
465.60	892.00
465.86	890.00
466.12	905.00
466.38	883.00
466.64	885.00
466.90	889.00
467.16	904.00
467.42	913.00
467.68	867.00
467.94	894.00
468.20	925.00
468.46	922.00
468.72	894.00
468.98	904.00
469.25	902.00
469.51	895.00
469.77	915.00
470.03	914.00
470.29	902.00
470.55	921.00
470.81	896.00
471.07	891.00
471.33	916.00
471.59	935.00
471.85	891.00
472.11	888.00
472.37	914.00
472.63	907.00
472.89	906.00
473.15	884.00
473.41	899.00
473.67	898.00
473.93	848.00
474.19	850.00
474.45	889.00
474.71	903.00
474.97	871.00
475.23	875.00
475.49	891.00
475.75	882.00
476.01	893.00
476.27	924.00
476.53	941.00
476.79	924.00
477.05	883.00
477.31	878.00
477.57	911.00
477.83	910.00
478.09	862.00
478.35	899.00
478.61	927.00
478.87	908.00
479.13	870.00
479.39	903.00
479.65	929.00
479.91	929.00
480.17	900.00
480.43	905.00
480.69	895.00
480.95	909.00
481.21	886.00
481.47	883.00
481.73	906.00
481.99	883.00
482.25	872.00
482.51	871.00
482.77	934.00
483.03	930.00
483.29	901.00
483.55	899.00
483.81	918.00
484.07	919.00
484.33	879.00
484.59	869.00
484.85	918.00
485.11	925.00
485.37	869.00
485.63	884.00
485.89	900.00
486.15	883.00
486.41	869.00
486.67	891.00
486.93	919.00
487.19	901.00
487.45	874.00
487.71	884.00
487.97	922.00
488.23	914.00
488.49	872.00
488.75	877.00
489.01	924.00
489.27	954.00
489.53	897.00
489.79	879.00
490.05	891.00
490.31	922.00
490.57	913.00
490.83	950.00
491.08	912.00
491.34	896.00
491.60	860.00
491.86	893.00
492.12	954.00
492.38	939.00
492.64	863.00
492.90	854.00
493.16	912.00
493.42	877.00
493.68	867.00
493.94	884.00
494.20	892.00
494.46	919.00
494.72	903.00
494.98	871.00
495.24	891.00
495.50	911.00
495.76	904.00
496.02	906.00
496.28	936.00
496.54	937.00
496.80	903.00
497.05	870.00
497.31	912.00
497.57	916.00
497.83	867.00
498.09	911.00
498.35	942.00
498.61	922.00
498.87	886.00
499.13	889.00
499.39	896.00
499.65	894.00
499.91	907.00
500.17	871.00
500.43	959.00
500.69	989.00
500.95	898.00
501.20	908.00
501.46	931.00
501.72	925.00
501.98	917.00
502.24	918.00
502.50	933.00
502.76	901.00
503.02	887.00
503.28	899.00
503.54	957.00
503.80	949.00
504.06	922.00
504.32	928.00
504.58	935.00
504.83	906.00
505.09	855.00
505.35	888.00
505.61	877.00
505.87	899.00
506.13	884.00
506.39	878.00
506.65	938.00
506.91	978.00
507.17	897.00
507.43	880.00
507.68	885.00
507.94	929.00
508.20	878.00
508.46	867.00
508.72	918.00
508.98	933.00
509.24	876.00
509.50	907.00
509.76	897.00
510.02	906.00
510.28	870.00
510.53	886.00
510.79	914.00
511.05	894.00
511.31	879.00
511.57	888.00
511.83	912.00
512.09	930.00
512.35	876.00
512.61	886.00
512.87	908.00
513.12	926.00
513.38	877.00
513.64	903.00
513.90	931.00
514.16	941.00
514.42	899.00
514.68	893.00
514.94	912.00
515.20	923.00
515.45	877.00
515.71	890.00
515.97	906.00
516.23	898.00
516.49	871.00
516.75	889.00
517.01	906.00
517.27	901.00
517.53	863.00
517.78	897.00
518.04	918.00
518.30	906.00
518.56	866.00
518.82	887.00
519.08	920.00
519.34	876.00
519.60	884.00
519.85	898.00
520.11	904.00
520.37	905.00
520.63	879.00
520.89	903.00
521.15	905.00
521.41	884.00
521.66	882.00
521.92	879.00
522.18	919.00
522.44	922.00
522.70	884.00
522.96	869.00
523.22	924.00
523.48	904.00
523.73	889.00
523.99	880.00
524.25	939.00
524.51	907.00
524.77	878.00
525.03	882.00
525.29	939.00
525.54	919.00
525.80	871.00
526.06	891.00
526.32	906.00
526.58	897.00
526.84	877.00
527.09	867.00
527.35	885.00
527.61	910.00
527.87	885.00
528.13	905.00
528.39	901.00
528.65	905.00
528.90	865.00
529.16	874.00
529.42	876.00
529.68	897.00
529.94	868.00
530.20	882.00
530.45	876.00
530.71	909.00
530.97	870.00
531.23	882.00
531.49	916.00
531.75	908.00
532.00	881.00
532.26	872.00
532.52	915.00
532.78	897.00
533.04	866.00
533.30	886.00
533.55	906.00
533.81	903.00
534.07	851.00
534.33	865.00
534.59	921.00
534.85	907.00
535.10	856.00
535.36	869.00
535.62	922.00
535.88	907.00
536.14	864.00
536.39	885.00
536.65	930.00
536.91	921.00
537.17	866.00
537.43	890.00
537.69	921.00
537.94	922.00
538.20	862.00
538.46	871.00
538.72	901.00
538.98	921.00
539.23	872.00
539.49	862.00
539.75	920.00
540.01	902.00
540.27	873.00
540.52	911.00
540.78	907.00
541.04	920.00
541.30	873.00
541.56	845.00
541.81	917.00
542.07	990.00
542.33	903.00
542.59	890.00
542.85	905.00
543.10	903.00
543.36	873.00
543.62	914.00
543.88	900.00
544.14	888.00
544.39	866.00
544.65	887.00
544.91	924.00
545.17	908.00
545.43	879.00
545.68	884.00
545.94	903.00
546.20	935.00
546.46	876.00
546.71	880.00
546.97	906.00
547.23	908.00
547.49	896.00
547.75	888.00
548.00	927.00
548.26	940.00
548.52	871.00
548.78	872.00
549.03	891.00
549.29	881.00
549.55	858.00
549.81	880.00
550.07	906.00
550.32	912.00
550.58	855.00
550.84	878.00
551.10	894.00
551.35	897.00
551.61	879.00
551.87	908.00
552.13	928.00
552.39	893.00
552.64	860.00
552.90	884.00
553.16	923.00
553.42	908.00
553.67	866.00
553.93	876.00
554.19	914.00
554.45	935.00
554.70	890.00
554.96	850.00
555.22	864.00
555.48	907.00
555.73	890.00
555.99	881.00
556.25	923.00
556.51	904.00
556.76	870.00
557.02	893.00
557.28	911.00
557.54	872.00
557.79	873.00
558.05	898.00
558.31	888.00
558.57	906.00
558.82	881.00
559.08	874.00
559.34	867.00
559.60	895.00
559.85	883.00
560.11	897.00
560.37	881.00
560.63	873.00
560.88	854.00
561.14	855.00
561.40	902.00
561.66	883.00
561.91	866.00
562.17	882.00
562.43	922.00
562.68	929.00
562.94	900.00
563.20	906.00
563.46	915.00
563.71	916.00
563.97	878.00
564.23	901.00
564.49	923.00
564.74	886.00
565.00	875.00
565.26	892.00
565.51	901.00
565.77	898.00
566.03	856.00
566.29	890.00
566.54	883.00
566.80	876.00
567.06	880.00
567.31	906.00
567.57	930.00
567.83	898.00
568.09	884.00
568.34	876.00
568.60	890.00
568.86	919.00
569.11	901.00
569.37	866.00
569.63	908.00
569.89	929.00
570.14	836.00
570.40	864.00
570.66	894.00
570.91	898.00
571.17	881.00
571.43	904.00
571.69	933.00
571.94	930.00
572.20	870.00
572.46	884.00
572.71	911.00
572.97	901.00
573.23	875.00
573.48	855.00
573.74	883.00
574.00	922.00
574.26	877.00
574.51	877.00
574.77	926.00
575.03	901.00
575.28	892.00
575.54	884.00
575.80	873.00
576.05	897.00
576.31	857.00
576.57	857.00
576.82	904.00
577.08	911.00
577.34	874.00
577.59	894.00
577.85	926.00
578.11	899.00
578.37	874.00
578.62	888.00
578.88	918.00
579.14	924.00
579.39	884.00
579.65	901.00
579.91	904.00
580.16	896.00
580.42	878.00
580.68	879.00
580.93	914.00
581.19	893.00
581.45	862.00
581.70	891.00
581.96	910.00
582.22	922.00
582.47	896.00
582.73	897.00
582.99	917.00
583.24	899.00
583.50	858.00
583.76	889.00
584.01	896.00
584.27	921.00
584.53	874.00
584.78	897.00
585.04	902.00
585.30	911.00
585.55	897.00
585.81	886.00
586.07	932.00
586.32	909.00
586.58	876.00
586.83	877.00
587.09	912.00
587.35	900.00
587.60	856.00
587.86	873.00
588.12	879.00
588.37	913.00
588.63	882.00
588.89	878.00
589.14	922.00
589.40	904.00
589.66	861.00
589.91	889.00
590.17	908.00
590.43	851.00
590.68	867.00
590.94	889.00
591.19	913.00
591.45	912.00
591.71	873.00
591.96	893.00
592.22	923.00
592.48	928.00
592.73	857.00
592.99	877.00
593.25	901.00
593.50	914.00
593.76	871.00
594.01	889.00
594.27	897.00
594.53	889.00
594.78	863.00
595.04	886.00
595.30	900.00
595.55	897.00
595.81	850.00
596.06	889.00
596.32	908.00
596.58	899.00
596.83	884.00
597.09	883.00
597.35	901.00
597.60	888.00
597.86	870.00
598.11	890.00
598.37	922.00
598.63	905.00
598.88	860.00
599.14	859.00
599.39	912.00
599.65	895.00
599.91	836.00
600.16	875.00
600.42	906.00
600.67	925.00
600.93	887.00
601.19	892.00
601.44	951.00
601.70	923.00
601.95	866.00
602.21	886.00
602.47	893.00
602.72	908.00
602.98	875.00
603.23	894.00
603.49	904.00
603.75	925.00
604.00	889.00
604.26	880.00
604.51	885.00
604.77	922.00
605.03	861.00
605.28	860.00
605.54	926.00
605.79	937.00
606.05	849.00
606.31	854.00
606.56	897.00
606.82	912.00
607.07	873.00
607.33	892.00
607.59	909.00
607.84	889.00
608.10	850.00
608.35	869.00
608.61	896.00
608.86	914.00
609.12	881.00
609.38	893.00
609.63	915.00
609.89	900.00
610.14	866.00
610.40	873.00
610.65	897.00
610.91	902.00
611.17	879.00
611.42	882.00
611.68	926.00
611.93	943.00
612.19	888.00
612.44	898.00
612.70	917.00
612.96	891.00
613.21	867.00
613.47	870.00
613.72	878.00
613.98	909.00
614.23	874.00
614.49	892.00
614.75	920.00
615.00	909.00
615.26	886.00
615.51	865.00
615.77	905.00
616.02	928.00
616.28	874.00
616.53	900.00
616.79	911.00
617.05	890.00
617.30	864.00
617.56	879.00
617.81	924.00
618.07	910.00
618.32	884.00
618.58	906.00
618.83	911.00
619.09	912.00
619.34	872.00
619.60	882.00
619.86	908.00
620.11	921.00
620.37	894.00
620.62	898.00
620.88	925.00
621.13	923.00
621.39	896.00
621.64	910.00
621.90	932.00
622.15	905.00
622.41	876.00
622.66	886.00
622.92	922.00
623.18	930.00
623.43	874.00
623.69	898.00
623.94	920.00
624.20	931.00
624.45	900.00
624.71	934.00
624.96	940.00
625.22	966.00
625.47	923.00
625.73	932.00
625.98	961.00
626.24	946.00
626.49	917.00
626.75	924.00
627.00	958.00
627.26	972.00
627.51	932.00
627.77	946.00
628.02	953.00
628.28	976.00
628.53	934.00
628.79	980.00
629.05	995.00
629.30	988.00
629.56	970.00
629.81	997.00
630.07	989.00
630.32	1009.00
630.58	993.00
630.83	1003.00
631.09	1009.00
631.34	1019.00
631.60	989.00
631.85	992.00
632.11	1037.00
632.36	1045.00
632.62	1010.00
632.87	1050.00
633.13	1067.00
633.38	1073.00
633.64	1065.00
633.89	1094.00
634.15	1107.00
634.40	1147.00
634.66	1114.00
634.91	1121.00
635.17	1115.00
635.42	1144.00
635.68	1132.00
635.93	1126.00
636.18	1142.00
636.44	1182.00
636.69	1122.00
636.95	1115.00
637.20	1148.00
637.46	1142.00
637.71	1144.00
637.97	1143.00
638.22	1146.00
638.48	1184.00
638.73	1160.00
638.99	1119.00
639.24	1164.00
639.50	1140.00
639.75	1117.00
640.01	1114.00
640.26	1134.00
640.52	1123.00
640.77	1057.00
641.03	1096.00
641.28	1139.00
641.54	1116.00
641.79	1045.00
642.04	1061.00
642.30	1067.00
642.55	1049.00
642.81	1031.00
643.06	1051.00
643.32	1074.00
643.57	1068.00
643.83	1000.00
644.08	959.00
644.34	1005.00
644.59	1041.00
644.85	980.00
645.10	974.00
645.35	988.00
645.61	972.00
645.86	935.00
646.12	963.00
646.37	1012.00
646.63	989.00
646.88	898.00
647.14	927.00
647.39	957.00
647.65	980.00
647.90	919.00
648.15	943.00
648.41	958.00
648.66	941.00
648.92	892.00
649.17	901.00
649.43	922.00
649.68	927.00
649.94	925.00
650.19	884.00
650.44	911.00
650.70	913.00
650.95	872.00
651.21	894.00
651.46	934.00
651.72	932.00
651.97	902.00
652.23	903.00
652.48	914.00
652.73	907.00
652.99	893.00
653.24	908.00
653.50	903.00
653.75	898.00
654.01	893.00
654.26	922.00
654.51	914.00
654.77	930.00
655.02	902.00
655.28	878.00
655.53	908.00
655.79	916.00
656.04	885.00
656.29	881.00
656.55	886.00
656.80	913.00
657.06	855.00
657.31	871.00
657.56	883.00
657.82	886.00
658.07	872.00
658.33	898.00
658.58	898.00
658.84	913.00
659.09	868.00
659.34	883.00
659.60	901.00
659.85	918.00
660.11	869.00
660.36	876.00
660.61	890.00
660.87	877.00
661.12	848.00
661.38	884.00
661.63	892.00
661.88	906.00
662.14	894.00
662.39	875.00
662.65	909.00
662.90	932.00
663.15	860.00
663.41	877.00
663.66	934.00
663.92	921.00
664.17	878.00
664.42	883.00
664.68	900.00
664.93	880.00
665.19	860.00
665.44	869.00
665.69	867.00
665.95	901.00
666.20	863.00
666.45	900.00
666.71	896.00
666.96	909.00
667.22	848.00
667.47	882.00
667.72	886.00
667.98	891.00
668.23	854.00
668.49	899.00
668.74	911.00
668.99	913.00
669.25	866.00
669.50	868.00
669.75	904.00
670.01	901.00
670.26	839.00
670.52	875.00
670.77	906.00
671.02	885.00
671.28	862.00
671.53	884.00
671.78	921.00
672.04	918.00
672.29	886.00
672.54	884.00
672.80	905.00
673.05	903.00
673.31	881.00
673.56	905.00
673.81	918.00
674.07	906.00
674.32	887.00
674.57	883.00
674.83	883.00
675.08	899.00
675.33	892.00
675.59	881.00
675.84	906.00
676.09	873.00
676.35	882.00
676.60	879.00
676.86	889.00
677.11	922.00
677.36	890.00
677.62	902.00
677.87	927.00
678.12	945.00
678.38	874.00
678.63	885.00
678.88	916.00
679.14	926.00
679.39	849.00
679.64	877.00
679.90	881.00
680.15	914.00
680.40	899.00
680.66	880.00
680.91	900.00
681.16	902.00
681.42	860.00
681.67	880.00
681.92	905.00
682.18	944.00
682.43	872.00
682.68	864.00
682.94	895.00
683.19	873.00
683.44	852.00
683.70	890.00
683.95	913.00
684.20	897.00
684.46	892.00
684.71	910.00
684.96	881.00
685.22	892.00
685.47	884.00
685.72	900.00
685.98	917.00
686.23	865.00
686.48	852.00
686.74	883.00
686.99	919.00
687.24	906.00
687.50	868.00
687.75	869.00
688.00	878.00
688.25	886.00
688.51	894.00
688.76	912.00
689.01	872.00
689.27	872.00
689.52	841.00
689.77	870.00
690.03	855.00
690.28	874.00
690.53	880.00
690.79	899.00
691.04	900.00
691.29	915.00
691.54	858.00
691.80	893.00
692.05	897.00
692.30	890.00
692.56	869.00
692.81	881.00
693.06	886.00
693.32	876.00
693.57	874.00
693.82	909.00
694.07	926.00
694.33	893.00
694.58	858.00
694.83	887.00
695.09	877.00
695.34	912.00
695.59	899.00
695.84	894.00
696.10	914.00
696.35	903.00
696.60	853.00
696.86	871.00
697.11	908.00
697.36	915.00
697.61	865.00
697.87	883.00
698.12	884.00
698.37	894.00
698.63	888.00
698.88	871.00
699.13	888.00
699.38	880.00
699.64	872.00
699.89	884.00
700.14	886.00
700.39	886.00
700.65	880.00
700.90	901.00
701.15	877.00
701.40	889.00
701.66	866.00
701.91	908.00
702.16	902.00
702.42	876.00
702.67	842.00
702.92	866.00
703.17	892.00
703.43	903.00
703.68	876.00
703.93	901.00
704.18	928.00
704.44	873.00
704.69	876.00
704.94	894.00
705.19	885.00
705.45	906.00
705.70	881.00
705.95	883.00
706.20	881.00
706.46	904.00
706.71	884.00
706.96	879.00
707.21	892.00
707.47	901.00
707.72	882.00
707.97	880.00
708.22	909.00
708.48	918.00
708.73	868.00
708.98	855.00
709.23	900.00
709.49	903.00
709.74	874.00
709.99	882.00
710.24	880.00
710.50	893.00
710.75	889.00
711.00	909.00
711.25	907.00
711.50	893.00
711.76	858.00
712.01	873.00
712.26	859.00
712.51	898.00
712.77	876.00
713.02	894.00
713.27	883.00
713.52	881.00
713.78	872.00
714.03	874.00
714.28	865.00
714.53	906.00
714.78	884.00
715.04	911.00
715.29	925.00
715.54	912.00
715.79	863.00
716.05	897.00
716.30	912.00
716.55	917.00
716.80	881.00
717.05	891.00
717.31	914.00
717.56	916.00
717.81	895.00
718.06	876.00
718.31	873.00
718.57	905.00
718.82	856.00
719.07	911.00
719.32	896.00
719.57	895.00
719.83	874.00
720.08	900.00
720.33	895.00
720.58	874.00
720.83	855.00
721.09	923.00
721.34	910.00
721.59	939.00
721.84	865.00
722.09	885.00
722.35	886.00
722.60	865.00
722.85	854.00
723.10	893.00
723.35	869.00
723.61	905.00
723.86	896.00
724.11	908.00
724.36	889.00
724.61	893.00
724.87	873.00
725.12	866.00
725.37	894.00
725.62	886.00
725.87	854.00
726.12	864.00
726.38	858.00
726.63	903.00
726.88	884.00
727.13	909.00
727.38	885.00
727.64	893.00
727.89	869.00
728.14	868.00
728.39	862.00
728.64	887.00
728.89	881.00
729.15	909.00
729.40	917.00
729.65	932.00
729.90	869.00
730.15	876.00
730.40	897.00
730.66	891.00
730.91	851.00
731.16	879.00
731.41	882.00
731.66	898.00
731.91	874.00
732.17	899.00
732.42	914.00
732.67	905.00
732.92	873.00
733.17	902.00
733.42	904.00
733.68	896.00
733.93	856.00
734.18	879.00
734.43	861.00
734.68	883.00
734.93	883.00
735.18	888.00
735.44	891.00
735.69	890.00
735.94	838.00
736.19	876.00
736.44	876.00
736.69	925.00
736.95	879.00
737.20	882.00
737.45	887.00
737.70	890.00
737.95	887.00
738.20	904.00
738.45	925.00
738.70	893.00
738.96	872.00
739.21	886.00
739.46	897.00
739.71	924.00
739.96	889.00
740.21	914.00
740.46	959.00
740.72	934.00
740.97	882.00
741.22	892.00
741.47	878.00
741.72	908.00
741.97	850.00
742.22	877.00
742.47	902.00
742.73	899.00
742.98	868.00
743.23	867.00
743.48	862.00
743.73	913.00
743.98	875.00
744.23	889.00
744.48	902.00
744.74	887.00
744.99	871.00
745.24	897.00
745.49	874.00
745.74	912.00
745.99	851.00
746.24	877.00
746.49	869.00
746.74	875.00
747.00	867.00
747.25	870.00
747.50	864.00
747.75	877.00
748.00	842.00
748.25	877.00
748.50	886.00
748.75	904.00
749.00	909.00
749.26	911.00
749.51	893.00
749.76	910.00
750.01	864.00
750.26	890.00
750.51	909.00
750.76	908.00
751.01	865.00
751.26	880.00
751.51	876.00
751.77	901.00
752.02	886.00
752.27	883.00
752.52	892.00
752.77	898.00
753.02	878.00
753.27	884.00
753.52	894.00
753.77	889.00
754.02	865.00
754.27	882.00
754.52	876.00
754.78	889.00
755.03	873.00
755.28	888.00
755.53	903.00
755.78	892.00
756.03	867.00
756.28	904.00
756.53	889.00
756.78	883.00
757.03	880.00
757.28	907.00
757.53	904.00
757.79	863.00
758.04	845.00
758.29	925.00
758.54	929.00
758.79	914.00
759.04	860.00
759.29	851.00
759.54	867.00
759.79	869.00
760.04	859.00
760.29	882.00
760.54	880.00
760.79	884.00
761.04	868.00
761.29	877.00
761.55	878.00
761.80	890.00
762.05	850.00
762.30	892.00
762.55	881.00
762.80	906.00
763.05	898.00
763.30	910.00
763.55	918.00
763.80	915.00
764.05	854.00
764.30	896.00
764.55	922.00
764.80	895.00
765.05	839.00
765.30	906.00
765.55	898.00
765.80	890.00
766.05	850.00
766.30	891.00
766.56	894.00
766.81	900.00
767.06	900.00
767.31	899.00
767.56	880.00
767.81	894.00
768.06	861.00
768.31	884.00
768.56	898.00
768.81	949.00
769.06	878.00
769.31	899.00
769.56	894.00
769.81	887.00
770.06	852.00
770.31	875.00
770.56	892.00
770.81	868.00
771.06	846.00
771.31	884.00
771.56	894.00
771.81	902.00
772.06	873.00
772.31	913.00
772.56	892.00
772.81	921.00
773.06	877.00
773.31	884.00
773.56	882.00
773.81	869.00
774.06	848.00
774.31	884.00
774.56	903.00
774.81	909.00
775.06	886.00
775.31	908.00
775.56	908.00
775.81	874.00
776.06	860.00
776.31	878.00
776.56	888.00
776.82	887.00
777.07	841.00
777.32	870.00
777.57	907.00
777.82	934.00
778.07	872.00
778.32	866.00
778.57	898.00
778.82	924.00
779.07	886.00
779.32	885.00
779.57	860.00
779.82	879.00
780.07	853.00
780.32	878.00
780.56	899.00
780.81	933.00
781.06	865.00
781.31	859.00
781.56	893.00
781.81	904.00
782.06	863.00
782.31	900.00
782.56	891.00
782.81	914.00
783.06	864.00
783.31	871.00
783.56	865.00
783.81	902.00
784.06	876.00
784.31	878.00
784.56	875.00
784.81	937.00
785.06	895.00
785.31	891.00
785.56	858.00
785.81	857.00
786.06	844.00
786.31	886.00
786.56	877.00
786.81	886.00
787.06	890.00
787.31	892.00
787.56	874.00
787.81	869.00
788.06	850.00
788.31	899.00
788.56	881.00
788.81	924.00
789.06	878.00
789.31	884.00
789.56	883.00
789.81	878.00
790.06	847.00
790.31	906.00
790.56	901.00
790.80	894.00
791.05	856.00
791.30	867.00
791.55	867.00
791.80	874.00
792.05	865.00
792.30	880.00
792.55	874.00
792.80	910.00
793.05	871.00
793.30	869.00
793.55	875.00
793.80	896.00
794.05	855.00
794.30	882.00
794.55	876.00
794.80	906.00
795.05	865.00
795.30	870.00
795.54	867.00
795.79	906.00
796.04	880.00
796.29	887.00
796.54	896.00
796.79	914.00
797.04	877.00
797.29	879.00
797.54	897.00
797.79	914.00
798.04	888.00
798.29	881.00
798.54	858.00
798.79	862.00
799.04	852.00
799.29	892.00
799.53	888.00
799.78	891.00
800.03	860.00
800.28	865.00
800.53	882.00
800.78	932.00
801.03	862.00
801.28	879.00
801.53	890.00
801.78	902.00
802.03	870.00
802.28	892.00
802.52	906.00
802.77	910.00
803.02	887.00
803.27	902.00
803.52	857.00
803.77	911.00
804.02	897.00
804.27	908.00
804.52	904.00
804.77	903.00
805.02	868.00
805.27	904.00
805.51	881.00
805.76	913.00
806.01	858.00
806.26	857.00
806.51	875.00
806.76	917.00
807.01	894.00
807.26	883.00
807.51	917.00
807.76	887.00
808.00	854.00
808.25	877.00
808.50	910.00
808.75	883.00
809.00	849.00
809.25	884.00
809.50	886.00
809.75	907.00
810.00	898.00
810.24	868.00
810.49	845.00
810.74	864.00
810.99	873.00
811.24	902.00
811.49	892.00
811.74	912.00
811.99	856.00
812.24	886.00
812.48	877.00
812.73	865.00
812.98	845.00
813.23	849.00
813.48	870.00
813.73	881.00
813.98	849.00
814.23	881.00
814.47	884.00
814.72	879.00
814.97	862.00
815.22	890.00
815.47	845.00
815.72	866.00
815.97	840.00
816.22	871.00
816.46	893.00
816.71	893.00
816.96	878.00
817.21	885.00
817.46	861.00
817.71	903.00
817.96	883.00
818.20	869.00
818.45	845.00
818.70	881.00
818.95	846.00
819.20	870.00
819.45	876.00
819.70	891.00
819.94	862.00
820.19	878.00
820.44	869.00
820.69	920.00
820.94	891.00
821.19	902.00
821.44	945.00
821.68	945.00
821.93	884.00
822.18	901.00
822.43	915.00
822.68	906.00
822.93	863.00
823.17	885.00
823.42	898.00
823.67	867.00
823.92	847.00
824.17	886.00
824.42	886.00
824.67	882.00
824.91	881.00
825.16	905.00
825.41	890.00
825.66	884.00
825.91	853.00
826.16	878.00
826.40	891.00
826.65	902.00
826.90	849.00
827.15	881.00
827.40	885.00
827.65	909.00
827.89	824.00
828.14	860.00
828.39	876.00
828.64	910.00
828.89	873.00
829.13	862.00
829.38	863.00
829.63	888.00
829.88	856.00
830.13	853.00
830.38	876.00
830.62	886.00
830.87	866.00
831.12	890.00
831.37	916.00
831.62	921.00
831.86	868.00
832.11	878.00
832.36	854.00
832.61	884.00
832.86	866.00
833.10	896.00
833.35	901.00
833.60	900.00
833.85	876.00
834.10	887.00
834.35	912.00
834.59	917.00
834.84	855.00
835.09	892.00
835.34	875.00
835.59	888.00
835.83	891.00
836.08	906.00
836.33	898.00
836.58	908.00
836.83	858.00
837.07	887.00
837.32	898.00
837.57	880.00
837.82	858.00
838.06	867.00
838.31	910.00
838.56	920.00
838.81	865.00
839.06	919.00
839.30	891.00
839.55	912.00
839.80	850.00
840.05	893.00
840.30	922.00
840.54	940.00
840.79	873.00
841.04	899.00
841.29	915.00
841.53	916.00
841.78	868.00
842.03	861.00
842.28	859.00
842.53	875.00
842.77	874.00
843.02	886.00
843.27	891.00
843.52	888.00
843.76	859.00
844.01	886.00
844.26	891.00
844.51	902.00
844.75	857.00
845.00	853.00
845.25	885.00
845.50	897.00
845.75	869.00
845.99	901.00
846.24	897.00
846.49	905.00
846.74	866.00
846.98	865.00
847.23	866.00
847.48	906.00
847.73	877.00
847.97	890.00
848.22	911.00
848.47	905.00
848.72	873.00
848.96	879.00
849.21	905.00
849.46	882.00
849.71	864.00
849.95	884.00
850.20	880.00
850.45	886.00
850.70	847.00
850.94	896.00
851.19	893.00
851.44	873.00
851.69	836.00
851.93	875.00
852.18	906.00
852.43	897.00
852.68	892.00
852.92	894.00
853.17	929.00
853.42	910.00
853.66	880.00
853.91	880.00
854.16	877.00
854.41	933.00
854.65	885.00
854.90	886.00
855.15	894.00
855.40	906.00
855.64	883.00
855.89	881.00
856.14	882.00
856.39	873.00
856.63	861.00
856.88	875.00
857.13	873.00
857.37	876.00
857.62	858.00
857.87	831.00
858.12	866.00
858.36	914.00
858.61	846.00
858.86	879.00
859.10	901.00
859.35	885.00
859.60	849.00
859.85	836.00
860.09	850.00
860.34	904.00
860.59	875.00
860.83	891.00
861.08	882.00
861.33	928.00
861.58	869.00
861.82	857.00
862.07	870.00
862.32	870.00
862.56	864.00
862.81	868.00
863.06	880.00
863.30	880.00
863.55	873.00
863.80	881.00
864.05	889.00
864.29	881.00
864.54	860.00
864.79	877.00
865.03	887.00
865.28	910.00
865.53	858.00
865.77	854.00
866.02	896.00
866.27	914.00
866.51	881.00
866.76	858.00
867.01	855.00
867.26	896.00
867.50	856.00
867.75	856.00
868.00	894.00
868.24	893.00
868.49	860.00
868.74	897.00
868.98	890.00
869.23	898.00
869.48	890.00
869.72	873.00
869.97	874.00
870.22	900.00
870.46	869.00
870.71	893.00
870.96	890.00
871.20	887.00
871.45	848.00
871.70	873.00
871.94	917.00
872.19	920.00
872.44	894.00
872.68	884.00
872.93	873.00
873.18	888.00
873.42	860.00
873.67	883.00
873.92	900.00
874.16	872.00
874.41	872.00
874.66	905.00
874.90	902.00
875.15	916.00
875.40	898.00
875.64	888.00
875.89	870.00
876.14	888.00
876.38	864.00
876.63	871.00
876.88	897.00
877.12	889.00
877.37	849.00
877.62	884.00
877.86	890.00
878.11	886.00
878.36	844.00
878.60	867.00
878.85	872.00
879.09	904.00
879.34	868.00
879.59	885.00
879.83	928.00
880.08	941.00
880.33	882.00
880.57	890.00
880.82	898.00
881.07	900.00
881.31	878.00
881.56	880.00
881.80	866.00
882.05	870.00
882.30	832.00
882.54	865.00
882.79	913.00
883.04	950.00
883.28	899.00
883.53	880.00
883.77	899.00
884.02	900.00
884.27	851.00
884.51	860.00
884.76	880.00
885.01	923.00
885.25	851.00
885.50	883.00
885.74	884.00
885.99	911.00
886.24	868.00
886.48	870.00
886.73	911.00
886.98	924.00
887.22	883.00
887.47	884.00
887.71	886.00
887.96	896.00
888.21	883.00
888.45	870.00
888.70	861.00
888.94	912.00
889.19	848.00
889.44	862.00
889.68	865.00
889.93	917.00
890.17	893.00
890.42	872.00
890.67	899.00
890.91	971.00
891.16	867.00
891.40	867.00
891.65	889.00
891.90	924.00
892.14	856.00
892.39	885.00
892.63	879.00
892.88	916.00
893.13	880.00
893.37	859.00
893.62	879.00
893.86	912.00
894.11	878.00
894.36	876.00
894.60	869.00
894.85	877.00
895.09	881.00
895.34	903.00
895.59	889.00
895.83	876.00
896.08	843.00
896.32	852.00
896.57	869.00
896.81	892.00
897.06	878.00
897.31	884.00
897.55	895.00
897.80	880.00
898.04	848.00
898.29	874.00
898.53	884.00
898.78	913.00
899.03	877.00
899.27	863.00
899.52	886.00
899.76	910.00
900.01	865.00
900.25	884.00
900.50	882.00
900.75	901.00
900.99	871.00
901.24	950.00
901.48	894.00
901.73	896.00
901.97	853.00
902.22	882.00
902.47	893.00
902.71	890.00
902.96	851.00
903.20	880.00
903.45	897.00
903.69	903.00
903.94	863.00
904.18	853.00
904.43	860.00
904.68	885.00
904.92	861.00
905.17	875.00
905.41	897.00
905.66	913.00
905.90	919.00
906.15	886.00
906.39	892.00
906.64	871.00
906.88	842.00
907.13	870.00
907.38	885.00
907.62	908.00
907.87	866.00
908.11	888.00
908.36	865.00
908.60	871.00
908.85	817.00
909.09	852.00
909.34	866.00
909.58	900.00
909.83	854.00
910.07	872.00
910.32	922.00
910.56	918.00
910.81	850.00
911.06	892.00
911.30	907.00
911.55	879.00
911.79	851.00
912.04	865.00
912.28	860.00
912.53	894.00
912.77	884.00
913.02	894.00
913.26	886.00
913.51	895.00
913.75	863.00
914.00	872.00
914.24	893.00
914.49	897.00
914.73	849.00
914.98	871.00
915.22	914.00
915.47	898.00
915.71	866.00
915.96	891.00
916.20	886.00
916.45	868.00
916.69	857.00
916.94	884.00
917.18	886.00
917.43	885.00
917.67	850.00
917.92	855.00
918.16	873.00
918.41	885.00
918.65	850.00
918.90	854.00
919.14	864.00
919.39	899.00
919.63	852.00
919.88	864.00
920.12	902.00
920.37	906.00
920.61	843.00
920.86	882.00
921.10	888.00
921.35	855.00
921.59	845.00
921.84	877.00
922.08	914.00
922.33	920.00
922.57	860.00
922.82	846.00
923.06	870.00
923.31	883.00
923.55	841.00
923.80	867.00
924.04	868.00
924.29	903.00
924.53	854.00
924.78	869.00
925.02	861.00
925.27	895.00
925.51	883.00
925.76	897.00
926.00	870.00
926.25	874.00
926.49	858.00
926.73	893.00
926.98	907.00
927.22	911.00
927.47	872.00
927.71	862.00
927.96	897.00
928.20	876.00
928.45	881.00
928.69	927.00
928.94	899.00
929.18	890.00
929.43	897.00
929.67	896.00
929.91	897.00
930.16	893.00
930.40	853.00
930.65	838.00
930.89	875.00
931.14	921.00
931.38	882.00
931.63	893.00
931.87	898.00
932.12	903.00
932.36	852.00
932.60	865.00
932.85	906.00
933.09	891.00
933.34	842.00
933.58	894.00
933.83	885.00
934.07	911.00
934.32	882.00
934.56	906.00
934.80	927.00
935.05	932.00
935.29	880.00
935.54	884.00
935.78	886.00
936.03	894.00
936.27	841.00
936.52	873.00
936.76	882.00
937.00	883.00
937.25	863.00
937.49	893.00
937.74	918.00
937.98	910.00
938.23	849.00
938.47	848.00
938.71	870.00
938.96	883.00
939.20	855.00
939.45	859.00
939.69	881.00
939.94	916.00
940.18	857.00
940.42	883.00
940.67	901.00
940.91	895.00
941.16	878.00
941.40	859.00
941.64	868.00
941.89	877.00
942.13	845.00
942.38	897.00
942.62	978.00
942.87	915.00
943.11	874.00
943.35	875.00
943.60	891.00
943.84	919.00
944.09	893.00
944.33	898.00
944.57	921.00
944.82	875.00
945.06	859.00
945.31	894.00
945.55	887.00
945.79	907.00
946.04	870.00
946.28	877.00
946.53	870.00
946.77	884.00
947.01	840.00
947.26	893.00
947.50	881.00
947.75	904.00
947.99	856.00
948.23	878.00
948.48	884.00
948.72	909.00
948.97	868.00
949.21	871.00
949.45	891.00
949.70	913.00
949.94	877.00
950.18	888.00
950.43	898.00
950.67	884.00
950.92	872.00
951.16	874.00
951.40	890.00
951.65	883.00
951.89	873.00
952.13	878.00
952.38	912.00
952.62	902.00
952.87	862.00
953.11	902.00
953.35	913.00
953.60	884.00
953.84	828.00
954.08	831.00
954.33	880.00
954.57	893.00
954.82	872.00
955.06	865.00
955.30	868.00
955.55	878.00
955.79	878.00
956.03	889.00
956.28	877.00
956.52	874.00
956.76	870.00
957.01	900.00
957.25	891.00
957.50	902.00
957.74	865.00
957.98	861.00
958.23	900.00
958.47	894.00
958.71	881.00
958.96	902.00
959.20	922.00
959.44	889.00
959.69	870.00
959.93	890.00
960.17	912.00
960.42	905.00
960.66	892.00
960.90	896.00
961.15	902.00
961.39	896.00
961.64	852.00
961.88	860.00
962.12	903.00
962.37	899.00
962.61	871.00
962.85	881.00
963.10	910.00
963.34	910.00
963.58	849.00
963.83	870.00
964.07	894.00
964.31	903.00
964.56	886.00
964.80	861.00
965.04	872.00
965.29	906.00
965.53	871.00
965.77	864.00
966.02	856.00
966.26	870.00
966.50	836.00
966.74	880.00
966.99	906.00
967.23	898.00
967.47	876.00
967.72	880.00
967.96	888.00
968.20	896.00
968.45	837.00
968.69	855.00
968.93	873.00
969.18	873.00
969.42	881.00
969.66	894.00
969.91	889.00
970.15	914.00
970.39	874.00
970.64	894.00
970.88	904.00
971.12	907.00
971.36	881.00
971.61	878.00
971.85	880.00
972.09	904.00
972.34	868.00
972.58	865.00
972.82	893.00
973.07	926.00
973.31	855.00
973.55	867.00
973.79	896.00
974.04	931.00
974.28	894.00
974.52	876.00
974.77	866.00
975.01	911.00
975.25	884.00
975.50	887.00
975.74	892.00
975.98	895.00
976.22	875.00
976.47	865.00
976.71	882.00
976.95	897.00
977.20	890.00
977.44	893.00
977.68	888.00
977.92	908.00
978.17	882.00
978.41	871.00
978.65	884.00
978.90	883.00
979.14	868.00
979.38	907.00
979.62	897.00
979.87	877.00
980.11	833.00
980.35	869.00
980.59	885.00
980.84	898.00
981.08	861.00
981.32	868.00
981.57	907.00
981.81	911.00
982.05	877.00
982.29	869.00
982.54	888.00
982.78	891.00
983.02	862.00
983.26	883.00
983.51	914.00
983.75	916.00
983.99	853.00
984.23	893.00
984.48	888.00
984.72	916.00
984.96	865.00
985.20	871.00
985.45	940.00
985.69	917.00
985.93	875.00
986.17	896.00
986.42	890.00
986.66	889.00
986.90	840.00
987.14	849.00
987.39	878.00
987.63	859.00
987.87	840.00
988.11	877.00
988.36	902.00
988.60	901.00
988.84	891.00
989.08	868.00
989.33	908.00
989.57	904.00
989.81	860.00
990.05	858.00
990.30	878.00
990.54	897.00
990.78	871.00
991.02	866.00
991.27	886.00
991.51	903.00
991.75	861.00
991.99	889.00
992.23	870.00
992.48	865.00
992.72	850.00
992.96	862.00
993.20	862.00
993.45	884.00
993.69	910.00
993.93	870.00
994.17	893.00
994.41	890.00
994.66	840.00
994.90	879.00
995.14	918.00
995.38	893.00
995.63	861.00
995.87	855.00
996.11	907.00
996.35	888.00
996.59	861.00
996.84	864.00
997.08	903.00
997.32	894.00
997.56	870.00
997.80	863.00
998.05	851.00
998.29	870.00
998.53	850.00
998.77	878.00
999.01	904.00
999.26	890.00
999.50	860.00
999.74	856.00
999.98	881.00
1000.22	891.00
1000.47	847.00
1000.71	856.00
1000.95	893.00
1001.19	892.00
1001.43	874.00
1001.68	879.00
1001.92	892.00
1002.16	885.00
1002.40	859.00
1002.64	881.00
1002.89	890.00
1003.13	903.00
1003.37	881.00
1003.61	865.00
1003.85	887.00
1004.10	872.00
1004.34	863.00
1004.58	861.00
1004.82	891.00
1005.06	897.00
1005.30	869.00
1005.55	869.00
1005.79	893.00
1006.03	888.00
1006.27	872.00
1006.51	875.00
1006.76	882.00
1007.00	893.00
1007.24	881.00
1007.48	892.00
1007.72	902.00
1007.96	891.00
1008.21	880.00
1008.45	898.00
1008.69	909.00
1008.93	920.00
1009.17	885.00
1009.41	903.00
1009.66	913.00
1009.90	873.00
1010.14	857.00
1010.38	875.00
1010.62	908.00
1010.86	923.00
1011.10	866.00
1011.35	862.00
1011.59	893.00
1011.83	860.00
1012.07	841.00
1012.31	857.00
1012.55	885.00
1012.80	909.00
1013.04	886.00
1013.28	873.00
1013.52	874.00
1013.76	897.00
1014.00	853.00
1014.24	877.00
1014.49	897.00
1014.73	942.00
1014.97	915.00
1015.21	883.00
1015.45	909.00
1015.69	903.00
1015.93	860.00
1016.18	873.00
1016.42	936.00
1016.66	918.00
1016.90	867.00
1017.14	854.00
1017.38	868.00
1017.62	883.00
1017.87	874.00
1018.11	865.00
1018.35	876.00
1018.59	881.00
1018.83	843.00
1019.07	875.00
1019.31	906.00
1019.55	917.00
1019.80	881.00
1020.04	875.00
1020.28	876.00
1020.52	891.00
1020.76	862.00
1021.00	860.00
1021.24	876.00
1021.48	861.00
1021.73	873.00
1021.97	893.00
1022.21	894.00
1022.45	900.00
1022.69	862.00
1022.93	853.00
1023.17	903.00
1023.41	924.00
1023.65	884.00
1023.90	901.00
1024.14	902.00
1024.38	880.00
1024.62	842.00
1024.86	882.00
1025.10	902.00
1025.34	886.00
1025.58	844.00
1025.82	876.00
1026.07	916.00
1026.31	890.00
1026.55	867.00
1026.79	857.00
1027.03	892.00
1027.27	892.00
1027.51	833.00
1027.75	846.00
1027.99	861.00
1028.23	901.00
1028.47	876.00
1028.72	858.00
1028.96	891.00
1029.20	882.00
1029.44	878.00
1029.68	886.00
1029.92	889.00
1030.16	894.00
1030.40	834.00
1030.64	857.00
1030.88	881.00
1031.12	873.00
1031.37	839.00
1031.61	865.00
1031.85	896.00
1032.09	905.00
1032.33	872.00
1032.57	910.00
1032.81	882.00
1033.05	900.00
1033.29	873.00
1033.53	871.00
1033.77	933.00
1034.01	938.00
1034.25	886.00
1034.50	880.00
1034.74	884.00
1034.98	916.00
1035.22	882.00
1035.46	876.00
1035.70	918.00
1035.94	918.00
1036.18	868.00
1036.42	859.00
1036.66	862.00
1036.90	880.00
1037.14	841.00
1037.38	866.00
1037.62	886.00
1037.86	884.00
1038.10	895.00
1038.35	880.00
1038.59	898.00
1038.83	901.00
1039.07	882.00
1039.31	893.00
1039.55	865.00
1039.79	887.00
1040.03	842.00
1040.27	857.00
1040.51	905.00
1040.75	918.00
1040.99	869.00
1041.23	878.00
1041.47	888.00
1041.71	915.00
1041.95	865.00
1042.19	876.00
1042.43	921.00
1042.67	923.00
1042.91	888.00
1043.15	868.00
1043.39	929.00
1043.64	895.00
1043.88	864.00
1044.12	888.00
1044.36	923.00
1044.60	903.00
1044.84	887.00
1045.08	889.00
1045.32	875.00
1045.56	890.00
1045.80	886.00
1046.04	874.00
1046.28	927.00
1046.52	901.00
1046.76	855.00
1047.00	861.00
1047.24	901.00
1047.48	869.00
1047.72	865.00
1047.96	863.00
1048.20	913.00
1048.44	897.00
1048.68	858.00
1048.92	872.00
1049.16	881.00
1049.40	907.00
1049.64	864.00
1049.88	896.00
1050.12	905.00
1050.36	921.00
1050.60	878.00
1050.84	892.00
1051.08	885.00
1051.32	879.00
1051.56	876.00
1051.80	868.00
1052.04	899.00
1052.28	929.00
1052.52	861.00
1052.76	843.00
1053.00	869.00
1053.24	889.00
1053.48	844.00
1053.72	882.00
1053.96	896.00
1054.20	905.00
1054.44	881.00
1054.68	895.00
1054.92	888.00
1055.16	871.00
1055.40	865.00
1055.64	888.00
1055.88	918.00
1056.12	918.00
1056.36	850.00
1056.60	868.00
1056.84	898.00
1057.08	897.00
1057.32	866.00
1057.56	853.00
1057.80	877.00
1058.04	914.00
1058.28	851.00
1058.52	861.00
1058.76	893.00
1059.00	907.00
1059.24	841.00
1059.48	838.00
1059.72	891.00
1059.96	888.00
1060.20	894.00
1060.44	892.00
1060.68	926.00
1060.92	893.00
1061.16	831.00
1061.40	873.00
1061.64	888.00
1061.88	889.00
1062.11	867.00
1062.35	856.00
1062.59	860.00
1062.83	885.00
1063.07	872.00
1063.31	849.00
1063.55	860.00
1063.79	897.00
1064.03	872.00
1064.27	858.00
1064.51	899.00
1064.75	909.00
1064.99	883.00
1065.23	878.00
1065.47	871.00
1065.71	908.00
1065.95	869.00
1066.19	873.00
1066.43	905.00
1066.67	913.00
1066.91	884.00
1067.15	877.00
1067.38	880.00
1067.62	886.00
1067.86	856.00
1068.10	881.00
1068.34	929.00
1068.58	945.00
1068.82	881.00
1069.06	843.00
1069.30	877.00
1069.54	929.00
1069.78	900.00
1070.02	871.00
1070.26	898.00
1070.50	932.00
1070.74	884.00
1070.98	900.00
1071.21	904.00
1071.45	892.00
1071.69	845.00
1071.93	878.00
1072.17	902.00
1072.41	895.00
1072.65	891.00
1072.89	896.00
1073.13	896.00
1073.37	885.00
1073.61	851.00
1073.85	862.00
1074.09	868.00
1074.32	869.00
1074.56	888.00
1074.80	962.00
1075.04	1158.00
1075.28	991.00
1075.52	883.00
1075.76	879.00
1076.00	908.00
1076.24	908.00
1076.48	899.00
1076.72	896.00
1076.96	918.00
1077.19	901.00
1077.43	865.00
1077.67	888.00
1077.91	877.00
1078.15	885.00
1078.39	870.00
1078.63	885.00
1078.87	884.00
1079.11	896.00
1079.35	864.00
1079.58	870.00
1079.82	887.00
1080.06	892.00
1080.30	860.00
1080.54	896.00
1080.78	908.00
1081.02	885.00
1081.26	873.00
1081.50	894.00
1081.74	900.00
1081.97	915.00
1082.21	868.00
1082.45	893.00
1082.69	894.00
1082.93	880.00
1083.17	884.00
1083.41	872.00
1083.65	920.00
1083.88	925.00
1084.12	897.00
1084.36	888.00
1084.60	901.00
1084.84	911.00
1085.08	846.00
1085.32	870.00
1085.56	917.00
1085.80	900.00
1086.03	870.00
1086.27	853.00
1086.51	882.00
1086.75	920.00
1086.99	874.00
1087.23	866.00
1087.47	901.00
1087.70	888.00
1087.94	876.00
1088.18	907.00
1088.42	949.00
1088.66	900.00
1088.90	848.00
1089.14	873.00
1089.38	876.00
1089.61	879.00
1089.85	857.00
1090.09	834.00
1090.33	912.00
1090.57	914.00
1090.81	841.00
1091.05	878.00
1091.28	904.00
1091.52	906.00
1091.76	859.00
1092.00	867.00
1092.24	893.00
1092.48	927.00
1092.71	858.00
1092.95	896.00
1093.19	898.00
1093.43	887.00
1093.67	861.00
1093.91	877.00
1094.15	891.00
1094.38	897.00
1094.62	831.00
1094.86	854.00
1095.10	882.00
1095.34	887.00
1095.58	873.00
1095.81	888.00
1096.05	921.00
1096.29	925.00
1096.53	849.00
1096.77	866.00
1097.01	865.00
1097.24	906.00
1097.48	864.00
1097.72	882.00
1097.96	886.00
1098.20	892.00
1098.44	849.00
1098.67	854.00
1098.91	892.00
1099.15	889.00
1099.39	853.00
1099.63	877.00
1099.86	893.00
1100.10	874.00
1100.34	867.00
1100.58	857.00
1100.82	869.00
1101.06	886.00
1101.29	866.00
1101.53	888.00
1101.77	913.00
1102.01	878.00
1102.25	867.00
1102.48	886.00
1102.72	929.00
1102.96	898.00
1103.20	850.00
1103.44	873.00
1103.67	870.00
1103.91	890.00
1104.15	847.00
1104.39	855.00
1104.63	889.00
1104.86	883.00
1105.10	854.00
1105.34	877.00
1105.58	874.00
1105.82	891.00
1106.05	877.00
1106.29	896.00
1106.53	896.00
1106.77	925.00
1107.01	846.00
1107.24	881.00
1107.48	925.00
1107.72	896.00
1107.96	849.00
1108.20	868.00
1108.43	886.00
1108.67	885.00
1108.91	874.00
1109.15	865.00
1109.39	877.00
1109.62	897.00
1109.86	848.00
1110.10	875.00
1110.34	944.00
1110.57	951.00
1110.81	869.00
1111.05	881.00
1111.29	923.00
1111.53	936.00
1111.76	861.00
1112.00	916.00
1112.24	928.00
1112.48	904.00
1112.71	846.00
1112.95	864.00
1113.19	916.00
1113.43	884.00
1113.66	837.00
1113.90	876.00
1114.14	904.00
1114.38	904.00
1114.62	854.00
1114.85	910.00
1115.09	897.00
1115.33	938.00
1115.57	877.00
1115.80	846.00
1116.04	871.00
1116.28	880.00
1116.52	860.00
1116.75	869.00
1116.99	906.00
1117.23	912.00
1117.47	878.00
1117.70	896.00
1117.94	956.00
1118.18	895.00
1118.42	874.00
1118.65	898.00
1118.89	910.00
1119.13	899.00
1119.37	855.00
1119.60	865.00
1119.84	890.00
>>>>>End Processed Spectral Data<<<<<
