SpectraSuite Data File
++++++++++++++++++++++++++++++++++++
Date: Fri Dec 06 16:15:09 CET 2024
User: student
Dark Spectrum Present: Yes
Reference Spectrum Present: Yes
Number of Sampled Component Spectra: 1
Spectrometers: HR4C155
Integration Time (usec): 100000 (HR4C155)
Spectra Averaged: 1 (HR4C155)
Boxcar Smoothing: 0 (HR4C155)
Correct for Electrical Dark: No (HR4C155)
Strobe/Lamp Enabled: No (HR4C155)
Correct for Detector Non-linearity: No (HR4C155)
Correct for Stray Light: No (HR4C155)
Number of Pixels in Processed Spectrum: 3648
>>>>>Begin Processed Spectral Data<<<<<
195.39	699.00
195.66	699.00
195.93	699.00
196.20	663.00
196.46	706.00
196.73	831.00
197.00	846.00
197.27	825.00
197.54	854.00
197.81	877.00
198.08	864.00
198.35	885.00
198.61	890.00
198.88	868.00
199.15	854.00
199.42	887.00
199.69	899.00
199.96	875.00
200.23	889.00
200.49	885.00
200.76	908.00
201.03	891.00
201.30	888.00
201.57	940.00
201.84	946.00
202.11	895.00
202.38	921.00
202.64	942.00
202.91	943.00
203.18	866.00
203.45	920.00
203.72	1001.00
203.99	942.00
204.25	923.00
204.52	915.00
204.79	935.00
205.06	952.00
205.33	874.00
205.60	910.00
205.87	944.00
206.13	943.00
206.40	918.00
206.67	909.00
206.94	934.00
207.21	934.00
207.48	911.00
207.75	900.00
208.01	940.00
208.28	943.00
208.55	894.00
208.82	929.00
209.09	921.00
209.36	965.00
209.62	905.00
209.89	936.00
210.16	938.00
210.43	974.00
210.70	881.00
210.97	914.00
211.23	954.00
211.50	964.00
211.77	913.00
212.04	909.00
212.31	925.00
212.58	961.00
212.84	934.00
213.11	918.00
213.38	885.00
213.65	910.00
213.92	903.00
214.18	911.00
214.45	965.00
214.72	966.00
214.99	893.00
215.26	909.00
215.53	908.00
215.79	947.00
216.06	920.00
216.33	916.00
216.60	892.00
216.87	952.00
217.13	872.00
217.40	910.00
217.67	939.00
217.94	978.00
218.21	911.00
218.48	947.00
218.74	986.00
219.01	959.00
219.28	896.00
219.55	892.00
219.82	915.00
220.08	941.00
220.35	916.00
220.62	906.00
220.89	970.00
221.16	974.00
221.42	915.00
221.69	927.00
221.96	941.00
222.23	966.00
222.50	933.00
222.76	928.00
223.03	916.00
223.30	900.00
223.57	885.00
223.84	879.00
224.10	895.00
224.37	930.00
224.64	898.00
224.91	920.00
225.18	950.00
225.44	976.00
225.71	915.00
225.98	939.00
226.25	954.00
226.51	951.00
226.78	904.00
227.05	899.00
227.32	934.00
227.59	936.00
227.85	936.00
228.12	914.00
228.39	967.00
228.66	978.00
228.92	976.00
229.19	934.00
229.46	945.00
229.73	903.00
230.00	888.00
230.26	929.00
230.53	936.00
230.80	929.00
231.07	876.00
231.33	887.00
231.60	928.00
231.87	942.00
232.14	895.00
232.41	957.00
232.67	956.00
232.94	949.00
233.21	902.00
233.48	943.00
233.74	946.00
234.01	919.00
234.28	894.00
234.55	903.00
234.81	912.00
235.08	956.00
235.35	894.00
235.62	900.00
235.88	917.00
236.15	947.00
236.42	926.00
236.69	908.00
236.95	954.00
237.22	930.00
237.49	901.00
237.76	913.00
238.02	950.00
238.29	970.00
238.56	897.00
238.83	908.00
239.09	918.00
239.36	962.00
239.63	892.00
239.90	895.00
240.16	953.00
240.43	1003.00
240.70	919.00
240.97	920.00
241.23	914.00
241.50	928.00
241.77	905.00
242.04	899.00
242.30	888.00
242.57	907.00
242.84	876.00
243.11	899.00
243.37	887.00
243.64	952.00
243.91	907.00
244.18	913.00
244.44	910.00
244.71	927.00
244.98	917.00
245.24	915.00
245.51	926.00
245.78	944.00
246.05	891.00
246.31	892.00
246.58	940.00
246.85	915.00
247.12	894.00
247.38	925.00
247.65	928.00
247.92	944.00
248.18	918.00
248.45	919.00
248.72	935.00
248.99	943.00
249.25	880.00
249.52	901.00
249.79	925.00
250.05	947.00
250.32	921.00
250.59	912.00
250.86	914.00
251.12	924.00
251.39	890.00
251.66	921.00
251.92	951.00
252.19	952.00
252.46	904.00
252.73	950.00
252.99	968.00
253.26	958.00
253.53	891.00
253.79	923.00
254.06	927.00
254.33	919.00
254.60	871.00
254.86	919.00
255.13	951.00
255.40	970.00
255.66	921.00
255.93	943.00
256.20	932.00
256.46	945.00
256.73	908.00
257.00	912.00
257.26	936.00
257.53	954.00
257.80	938.00
258.07	927.00
258.33	972.00
258.60	949.00
258.87	899.00
259.13	907.00
259.40	905.00
259.67	957.00
259.93	929.00
260.20	927.00
260.47	940.00
260.73	911.00
261.00	898.00
261.27	913.00
261.53	940.00
261.80	930.00
262.07	873.00
262.34	913.00
262.60	895.00
262.87	921.00
263.14	877.00
263.40	933.00
263.67	919.00
263.94	908.00
264.20	902.00
264.47	898.00
264.74	901.00
265.00	918.00
265.27	891.00
265.54	896.00
265.80	958.00
266.07	973.00
266.34	892.00
266.60	889.00
266.87	922.00
267.14	932.00
267.40	902.00
267.67	882.00
267.94	933.00
268.20	917.00
268.47	875.00
268.74	894.00
269.00	938.00
269.27	904.00
269.54	861.00
269.80	879.00
270.07	947.00
270.33	908.00
270.60	898.00
270.87	936.00
271.13	917.00
271.40	924.00
271.67	859.00
271.93	869.00
272.20	923.00
272.47	904.00
272.73	854.00
273.00	891.00
273.27	925.00
273.53	954.00
273.80	906.00
274.07	884.00
274.33	908.00
274.60	939.00
274.86	901.00
275.13	915.00
275.40	910.00
275.66	961.00
275.93	900.00
276.20	892.00
276.46	908.00
276.73	910.00
277.00	897.00
277.26	922.00
277.53	959.00
277.79	934.00
278.06	898.00
278.33	935.00
278.59	933.00
278.86	886.00
279.13	897.00
279.39	922.00
279.66	926.00
279.93	938.00
280.19	907.00
280.46	908.00
280.72	911.00
280.99	932.00
281.26	908.00
281.52	890.00
281.79	928.00
282.05	941.00
282.32	901.00
282.59	913.00
282.85	952.00
283.12	935.00
283.39	904.00
283.65	922.00
283.92	930.00
284.18	945.00
284.45	900.00
284.72	918.00
284.98	918.00
285.25	905.00
285.51	914.00
285.78	926.00
286.05	918.00
286.31	914.00
286.58	870.00
286.84	880.00
287.11	912.00
287.38	936.00
287.64	943.00
287.91	896.00
288.17	933.00
288.44	950.00
288.71	890.00
288.97	909.00
289.24	928.00
289.50	911.00
289.77	918.00
290.04	878.00
290.30	891.00
290.57	958.00
290.83	889.00
291.10	890.00
291.37	902.00
291.63	907.00
291.90	930.00
292.16	926.00
292.43	928.00
292.70	915.00
292.96	862.00
293.23	882.00
293.49	897.00
293.76	938.00
294.02	907.00
294.29	912.00
294.56	944.00
294.82	932.00
295.09	894.00
295.35	891.00
295.62	946.00
295.89	959.00
296.15	897.00
296.42	883.00
296.68	888.00
296.95	916.00
297.21	905.00
297.48	916.00
297.75	938.00
298.01	961.00
298.28	926.00
298.54	940.00
298.81	932.00
299.07	919.00
299.34	857.00
299.61	890.00
299.87	935.00
300.14	926.00
300.40	908.00
300.67	884.00
300.93	926.00
301.20	959.00
301.46	880.00
301.73	895.00
302.00	925.00
302.26	909.00
302.53	912.00
302.79	901.00
303.06	937.00
303.32	980.00
303.59	886.00
303.85	880.00
304.12	919.00
304.39	923.00
304.65	897.00
304.92	896.00
305.18	926.00
305.45	940.00
305.71	902.00
305.98	934.00
306.24	910.00
306.51	910.00
306.77	885.00
307.04	921.00
307.31	944.00
307.57	962.00
307.84	874.00
308.10	890.00
308.37	895.00
308.63	901.00
308.90	911.00
309.16	910.00
309.43	942.00
309.69	915.00
309.96	909.00
310.22	915.00
310.49	912.00
310.76	942.00
311.02	879.00
311.29	898.00
311.55	925.00
311.82	922.00
312.08	899.00
312.35	909.00
312.61	950.00
312.88	958.00
313.14	902.00
313.41	891.00
313.67	887.00
313.94	914.00
314.20	912.00
314.47	930.00
314.73	923.00
315.00	917.00
315.26	884.00
315.53	921.00
315.79	936.00
316.06	937.00
316.32	885.00
316.59	915.00
316.85	923.00
317.12	923.00
317.39	866.00
317.65	883.00
317.92	905.00
318.18	929.00
318.45	903.00
318.71	945.00
318.98	945.00
319.24	915.00
319.51	889.00
319.77	894.00
320.04	894.00
320.30	907.00
320.57	904.00
320.83	914.00
321.10	900.00
321.36	912.00
321.63	879.00
321.89	911.00
322.16	966.00
322.42	930.00
322.69	888.00
322.95	890.00
323.22	926.00
323.48	941.00
323.75	881.00
324.01	905.00
324.28	912.00
324.54	922.00
324.80	907.00
325.07	924.00
325.33	950.00
325.60	926.00
325.86	892.00
326.13	897.00
326.39	910.00
326.66	902.00
326.92	859.00
327.19	892.00
327.45	964.00
327.72	950.00
327.98	880.00
328.25	887.00
328.51	921.00
328.78	937.00
329.04	894.00
329.31	902.00
329.57	919.00
329.84	935.00
330.10	889.00
330.37	896.00
330.63	939.00
330.89	954.00
331.16	903.00
331.42	889.00
331.69	926.00
331.95	909.00
332.22	912.00
332.48	953.00
332.75	923.00
333.01	893.00
333.28	896.00
333.54	899.00
333.81	908.00
334.07	929.00
334.34	905.00
334.60	902.00
334.86	961.00
335.13	956.00
335.39	914.00
335.66	902.00
335.92	941.00
336.19	934.00
336.45	856.00
336.72	878.00
336.98	883.00
337.24	914.00
337.51	888.00
337.77	903.00
338.04	914.00
338.30	921.00
338.57	891.00
338.83	909.00
339.10	925.00
339.36	926.00
339.63	892.00
339.89	868.00
340.15	907.00
340.42	925.00
340.68	908.00
340.95	919.00
341.21	914.00
341.48	923.00
341.74	876.00
342.00	873.00
342.27	915.00
342.53	910.00
342.80	882.00
343.06	899.00
343.33	925.00
343.59	929.00
343.85	898.00
344.12	909.00
344.38	970.00
344.65	948.00
344.91	886.00
345.18	891.00
345.44	906.00
345.70	906.00
345.97	857.00
346.23	889.00
346.50	933.00
346.76	916.00
347.03	900.00
347.29	907.00
347.55	892.00
347.82	901.00
348.08	852.00
348.35	876.00
348.61	962.00
348.87	933.00
349.14	888.00
349.40	873.00
349.67	919.00
349.93	896.00
350.20	895.00
350.46	902.00
350.72	931.00
350.99	913.00
351.25	895.00
351.52	900.00
351.78	911.00
352.04	935.00
352.31	907.00
352.57	892.00
352.84	898.00
353.10	933.00
353.36	905.00
353.63	899.00
353.89	917.00
354.16	924.00
354.42	898.00
354.68	895.00
354.95	932.00
355.21	932.00
355.48	890.00
355.74	925.00
356.00	957.00
356.27	964.00
356.53	881.00
356.80	892.00
357.06	928.00
357.32	934.00
357.59	921.00
357.85	917.00
358.11	943.00
358.38	943.00
358.64	891.00
358.91	898.00
359.17	929.00
359.43	952.00
359.70	913.00
359.96	913.00
360.22	942.00
360.49	908.00
360.75	904.00
361.02	886.00
361.28	899.00
361.54	918.00
361.81	876.00
362.07	898.00
362.33	913.00
362.60	904.00
362.86	888.00
363.13	918.00
363.39	943.00
363.65	943.00
363.92	852.00
364.18	859.00
364.44	918.00
364.71	940.00
364.97	897.00
365.24	900.00
365.50	939.00
365.76	935.00
366.03	903.00
366.29	928.00
366.55	943.00
366.82	916.00
367.08	870.00
367.34	901.00
367.61	914.00
367.87	935.00
368.13	912.00
368.40	897.00
368.66	966.00
368.93	945.00
369.19	867.00
369.45	868.00
369.72	911.00
369.98	902.00
370.24	884.00
370.51	892.00
370.77	916.00
371.03	913.00
371.30	901.00
371.56	932.00
371.82	930.00
372.09	920.00
372.35	907.00
372.61	909.00
372.88	924.00
373.14	924.00
373.40	900.00
373.67	912.00
373.93	919.00
374.19	922.00
374.46	881.00
374.72	887.00
374.98	922.00
375.25	923.00
375.51	903.00
375.77	939.00
376.04	942.00
376.30	951.00
376.56	892.00
376.83	923.00
377.09	939.00
377.35	918.00
377.62	888.00
377.88	905.00
378.14	902.00
378.41	923.00
378.67	893.00
378.93	874.00
379.20	925.00
379.46	914.00
379.72	880.00
379.99	887.00
380.25	903.00
380.51	891.00
380.77	871.00
381.04	909.00
381.30	941.00
381.56	945.00
381.83	906.00
382.09	900.00
382.35	910.00
382.62	936.00
382.88	893.00
383.14	882.00
383.41	890.00
383.67	896.00
383.93	902.00
384.20	893.00
384.46	928.00
384.72	933.00
384.98	883.00
385.25	915.00
385.51	933.00
385.77	929.00
386.04	893.00
386.30	877.00
386.56	923.00
386.82	969.00
387.09	908.00
387.35	928.00
387.61	974.00
387.88	924.00
388.14	906.00
388.40	901.00
388.67	896.00
388.93	902.00
389.19	895.00
389.45	886.00
389.72	913.00
389.98	930.00
390.24	900.00
390.51	883.00
390.77	937.00
391.03	942.00
391.29	868.00
391.56	891.00
391.82	935.00
392.08	949.00
392.35	897.00
392.61	894.00
392.87	935.00
393.13	943.00
393.40	883.00
393.66	889.00
393.92	909.00
394.18	921.00
394.45	878.00
394.71	884.00
394.97	903.00
395.24	906.00
395.50	882.00
395.76	898.00
396.02	931.00
396.29	934.00
396.55	870.00
396.81	845.00
397.07	903.00
397.34	867.00
397.60	852.00
397.86	885.00
398.12	900.00
398.39	951.00
398.65	897.00
398.91	885.00
399.17	912.00
399.44	875.00
399.70	852.00
399.96	877.00
400.22	887.00
400.49	924.00
400.75	902.00
401.01	906.00
401.27	922.00
401.54	941.00
401.80	905.00
402.06	876.00
402.32	919.00
402.59	910.00
402.85	889.00
403.11	883.00
403.37	903.00
403.64	941.00
403.90	878.00
404.16	891.00
404.42	903.00
404.69	886.00
404.95	892.00
405.21	864.00
405.47	893.00
405.74	933.00
406.00	883.00
406.26	876.00
406.52	899.00
406.79	914.00
407.05	896.00
407.31	899.00
407.57	910.00
407.83	922.00
408.10	853.00
408.36	876.00
408.62	879.00
408.88	885.00
409.15	889.00
409.41	867.00
409.67	889.00
409.93	949.00
410.20	906.00
410.46	910.00
410.72	900.00
410.98	910.00
411.24	883.00
411.51	892.00
411.77	892.00
412.03	907.00
412.29	920.00
412.55	930.00
412.82	898.00
413.08	926.00
413.34	912.00
413.60	902.00
413.87	916.00
414.13	920.00
414.39	863.00
414.65	901.00
414.91	931.00
415.18	919.00
415.44	862.00
415.70	875.00
415.96	902.00
416.22	911.00
416.49	877.00
416.75	884.00
417.01	889.00
417.27	901.00
417.53	900.00
417.80	908.00
418.06	938.00
418.32	918.00
418.58	877.00
418.84	887.00
419.11	927.00
419.37	936.00
419.63	892.00
419.89	890.00
420.15	907.00
420.42	906.00
420.68	874.00
420.94	901.00
421.20	908.00
421.46	920.00
421.72	906.00
421.99	909.00
422.25	923.00
422.51	917.00
422.77	899.00
423.03	904.00
423.30	896.00
423.56	925.00
423.82	927.00
424.08	920.00
424.34	936.00
424.60	931.00
424.87	890.00
425.13	893.00
425.39	914.00
425.65	901.00
425.91	890.00
426.18	906.00
426.44	918.00
426.70	890.00
426.96	832.00
427.22	845.00
427.48	888.00
427.75	897.00
428.01	848.00
428.27	892.00
428.53	942.00
428.79	900.00
429.05	887.00
429.32	892.00
429.58	945.00
429.84	901.00
430.10	901.00
430.36	902.00
430.62	935.00
430.88	941.00
431.15	904.00
431.41	891.00
431.67	909.00
431.93	893.00
432.19	868.00
432.45	902.00
432.72	922.00
432.98	928.00
433.24	928.00
433.50	994.00
433.76	918.00
434.02	898.00
434.28	878.00
434.55	892.00
434.81	919.00
435.07	921.00
435.33	856.00
435.59	886.00
435.85	896.00
436.11	917.00
436.38	879.00
436.64	894.00
436.90	906.00
437.16	919.00
437.42	883.00
437.68	885.00
437.94	919.00
438.21	922.00
438.47	925.00
438.73	914.00
438.99	898.00
439.25	910.00
439.51	877.00
439.77	895.00
440.03	906.00
440.30	930.00
440.56	893.00
440.82	917.00
441.08	918.00
441.34	916.00
441.60	872.00
441.86	917.00
442.12	932.00
442.39	914.00
442.65	876.00
442.91	901.00
443.17	882.00
443.43	908.00
443.69	897.00
443.95	883.00
444.21	891.00
444.47	924.00
444.74	870.00
445.00	872.00
445.26	880.00
445.52	914.00
445.78	878.00
446.04	884.00
446.30	934.00
446.56	928.00
446.82	869.00
447.09	895.00
447.35	912.00
447.61	903.00
447.87	880.00
448.13	904.00
448.39	949.00
448.65	933.00
448.91	885.00
449.17	884.00
449.43	902.00
449.70	909.00
449.96	864.00
450.22	873.00
450.48	921.00
450.74	955.00
451.00	875.00
451.26	889.00
451.52	909.00
451.78	897.00
452.04	877.00
452.31	929.00
452.57	933.00
452.83	897.00
453.09	878.00
453.35	889.00
453.61	910.00
453.87	908.00
454.13	905.00
454.39	906.00
454.65	968.00
454.91	959.00
455.17	879.00
455.44	886.00
455.70	930.00
455.96	931.00
456.22	866.00
456.48	884.00
456.74	914.00
457.00	885.00
457.26	852.00
457.52	864.00
457.78	893.00
458.04	909.00
458.30	870.00
458.56	897.00
458.82	898.00
459.09	898.00
459.35	829.00
459.61	864.00
459.87	905.00
460.13	923.00
460.39	876.00
460.65	872.00
460.91	912.00
461.17	883.00
461.43	857.00
461.69	870.00
461.95	916.00
462.21	906.00
462.47	896.00
462.73	934.00
462.99	945.00
463.26	927.00
463.52	866.00
463.78	876.00
464.04	873.00
464.30	899.00
464.56	865.00
464.82	897.00
465.08	942.00
465.34	946.00
465.60	896.00
465.86	896.00
466.12	893.00
466.38	895.00
466.64	882.00
466.90	884.00
467.16	903.00
467.42	922.00
467.68	866.00
467.94	906.00
468.20	955.00
468.46	927.00
468.72	885.00
468.98	910.00
469.25	937.00
469.51	909.00
469.77	896.00
470.03	889.00
470.29	900.00
470.55	930.00
470.81	900.00
471.07	889.00
471.33	925.00
471.59	930.00
471.85	870.00
472.11	893.00
472.37	928.00
472.63	916.00
472.89	913.00
473.15	898.00
473.41	911.00
473.67	893.00
473.93	865.00
474.19	861.00
474.45	877.00
474.71	894.00
474.97	862.00
475.23	873.00
475.49	893.00
475.75	868.00
476.01	876.00
476.27	909.00
476.53	947.00
476.79	926.00
477.05	897.00
477.31	884.00
477.57	918.00
477.83	909.00
478.09	860.00
478.35	898.00
478.61	913.00
478.87	902.00
479.13	879.00
479.39	921.00
479.65	933.00
479.91	944.00
480.17	895.00
480.43	911.00
480.69	890.00
480.95	919.00
481.21	874.00
481.47	894.00
481.73	917.00
481.99	888.00
482.25	859.00
482.51	877.00
482.77	916.00
483.03	924.00
483.29	906.00
483.55	888.00
483.81	916.00
484.07	909.00
484.33	873.00
484.59	878.00
484.85	933.00
485.11	917.00
485.37	890.00
485.63	893.00
485.89	896.00
486.15	883.00
486.41	858.00
486.67	883.00
486.93	923.00
487.19	891.00
487.45	867.00
487.71	873.00
487.97	925.00
488.23	921.00
488.49	855.00
488.75	873.00
489.01	922.00
489.27	944.00
489.53	886.00
489.79	884.00
490.05	892.00
490.31	924.00
490.57	925.00
490.83	946.00
491.08	881.00
491.34	870.00
491.60	873.00
491.86	916.00
492.12	941.00
492.38	926.00
492.64	874.00
492.90	882.00
493.16	911.00
493.42	882.00
493.68	870.00
493.94	899.00
494.20	896.00
494.46	933.00
494.72	892.00
494.98	888.00
495.24	884.00
495.50	887.00
495.76	880.00
496.02	908.00
496.28	934.00
496.54	928.00
496.80	879.00
497.05	864.00
497.31	930.00
497.57	927.00
497.83	887.00
498.09	905.00
498.35	934.00
498.61	923.00
498.87	891.00
499.13	875.00
499.39	908.00
499.65	903.00
499.91	900.00
500.17	868.00
500.43	963.00
500.69	1000.00
500.95	894.00
501.20	914.00
501.46	910.00
501.72	922.00
501.98	922.00
502.24	911.00
502.50	937.00
502.76	887.00
503.02	887.00
503.28	899.00
503.54	948.00
503.80	961.00
504.06	897.00
504.32	907.00
504.58	919.00
504.83	911.00
505.09	863.00
505.35	891.00
505.61	889.00
505.87	892.00
506.13	893.00
506.39	886.00
506.65	923.00
506.91	948.00
507.17	899.00
507.43	897.00
507.68	896.00
507.94	914.00
508.20	874.00
508.46	875.00
508.72	927.00
508.98	937.00
509.24	878.00
509.50	897.00
509.76	894.00
510.02	902.00
510.28	874.00
510.53	888.00
510.79	916.00
511.05	909.00
511.31	880.00
511.57	896.00
511.83	907.00
512.09	918.00
512.35	885.00
512.61	892.00
512.87	909.00
513.12	903.00
513.38	863.00
513.64	890.00
513.90	916.00
514.16	940.00
514.42	909.00
514.68	899.00
514.94	935.00
515.20	912.00
515.45	872.00
515.71	877.00
515.97	899.00
516.23	890.00
516.49	863.00
516.75	876.00
517.01	902.00
517.27	892.00
517.53	873.00
517.78	900.00
518.04	895.00
518.30	891.00
518.56	868.00
518.82	902.00
519.08	943.00
519.34	875.00
519.60	874.00
519.85	909.00
520.11	911.00
520.37	905.00
520.63	900.00
520.89	906.00
521.15	904.00
521.41	889.00
521.66	880.00
521.92	886.00
522.18	920.00
522.44	933.00
522.70	889.00
522.96	868.00
523.22	916.00
523.48	913.00
523.73	886.00
523.99	880.00
524.25	945.00
524.51	926.00
524.77	867.00
525.03	893.00
525.29	925.00
525.54	923.00
525.80	875.00
526.06	884.00
526.32	888.00
526.58	905.00
526.84	874.00
527.09	868.00
527.35	882.00
527.61	884.00
527.87	874.00
528.13	905.00
528.39	905.00
528.65	894.00
528.90	853.00
529.16	866.00
529.42	878.00
529.68	889.00
529.94	873.00
530.20	902.00
530.45	889.00
530.71	909.00
530.97	865.00
531.23	898.00
531.49	925.00
531.75	908.00
532.00	887.00
532.26	883.00
532.52	906.00
532.78	893.00
533.04	855.00
533.30	881.00
533.55	890.00
533.81	880.00
534.07	848.00
534.33	879.00
534.59	921.00
534.85	915.00
535.10	872.00
535.36	856.00
535.62	893.00
535.88	891.00
536.14	864.00
536.39	871.00
536.65	923.00
536.91	923.00
537.17	877.00
537.43	883.00
537.69	936.00
537.94	904.00
538.20	863.00
538.46	880.00
538.72	914.00
538.98	923.00
539.23	873.00
539.49	873.00
539.75	922.00
540.01	911.00
540.27	880.00
540.52	926.00
540.78	929.00
541.04	925.00
541.30	869.00
541.56	862.00
541.81	928.00
542.07	970.00
542.33	900.00
542.59	895.00
542.85	901.00
543.10	901.00
543.36	868.00
543.62	912.00
543.88	916.00
544.14	911.00
544.39	874.00
544.65	873.00
544.91	926.00
545.17	900.00
545.43	876.00
545.68	884.00
545.94	913.00
546.20	919.00
546.46	858.00
546.71	888.00
546.97	919.00
547.23	927.00
547.49	881.00
547.75	879.00
548.00	910.00
548.26	916.00
548.52	869.00
548.78	857.00
549.03	890.00
549.29	890.00
549.55	848.00
549.81	886.00
550.07	926.00
550.32	918.00
550.58	856.00
550.84	912.00
551.10	905.00
551.35	897.00
551.61	882.00
551.87	892.00
552.13	902.00
552.39	877.00
552.64	855.00
552.90	884.00
553.16	899.00
553.42	911.00
553.67	867.00
553.93	875.00
554.19	916.00
554.45	942.00
554.70	888.00
554.96	849.00
555.22	897.00
555.48	916.00
555.73	872.00
555.99	877.00
556.25	909.00
556.51	906.00
556.76	880.00
557.02	888.00
557.28	917.00
557.54	900.00
557.79	874.00
558.05	900.00
558.31	884.00
558.57	912.00
558.82	866.00
559.08	853.00
559.34	866.00
559.60	904.00
559.85	877.00
560.11	899.00
560.37	909.00
560.63	896.00
560.88	864.00
561.14	880.00
561.40	913.00
561.66	878.00
561.91	875.00
562.17	888.00
562.43	913.00
562.68	933.00
562.94	907.00
563.20	909.00
563.46	922.00
563.71	926.00
563.97	862.00
564.23	889.00
564.49	917.00
564.74	913.00
565.00	858.00
565.26	866.00
565.51	904.00
565.77	892.00
566.03	870.00
566.29	894.00
566.54	880.00
566.80	884.00
567.06	878.00
567.31	900.00
567.57	941.00
567.83	904.00
568.09	905.00
568.34	868.00
568.60	891.00
568.86	916.00
569.11	893.00
569.37	866.00
569.63	897.00
569.89	916.00
570.14	873.00
570.40	889.00
570.66	898.00
570.91	891.00
571.17	866.00
571.43	909.00
571.69	923.00
571.94	928.00
572.20	861.00
572.46	873.00
572.71	902.00
572.97	897.00
573.23	859.00
573.48	865.00
573.74	892.00
574.00	925.00
574.26	866.00
574.51	876.00
574.77	928.00
575.03	897.00
575.28	869.00
575.54	871.00
575.80	886.00
576.05	906.00
576.31	853.00
576.57	852.00
576.82	897.00
577.08	901.00
577.34	875.00
577.59	888.00
577.85	924.00
578.11	888.00
578.37	875.00
578.62	883.00
578.88	911.00
579.14	931.00
579.39	891.00
579.65	900.00
579.91	902.00
580.16	907.00
580.42	876.00
580.68	873.00
580.93	911.00
581.19	893.00
581.45	852.00
581.70	878.00
581.96	912.00
582.22	912.00
582.47	875.00
582.73	903.00
582.99	926.00
583.24	911.00
583.50	857.00
583.76	873.00
584.01	892.00
584.27	932.00
584.53	884.00
584.78	890.00
585.04	888.00
585.30	898.00
585.55	894.00
585.81	876.00
586.07	925.00
586.32	924.00
586.58	887.00
586.83	880.00
587.09	908.00
587.35	906.00
587.60	865.00
587.86	892.00
588.12	896.00
588.37	907.00
588.63	856.00
588.89	868.00
589.14	899.00
589.40	925.00
589.66	872.00
589.91	878.00
590.17	895.00
590.43	854.00
590.68	854.00
590.94	875.00
591.19	912.00
591.45	903.00
591.71	859.00
591.96	890.00
592.22	920.00
592.48	904.00
592.73	867.00
592.99	876.00
593.25	901.00
593.50	919.00
593.76	859.00
594.01	870.00
594.27	891.00
594.53	897.00
594.78	865.00
595.04	881.00
595.30	900.00
595.55	906.00
595.81	850.00
596.06	892.00
596.32	918.00
596.58	914.00
596.83	867.00
597.09	893.00
597.35	908.00
597.60	877.00
597.86	850.00
598.11	881.00
598.37	918.00
598.63	902.00
598.88	863.00
599.14	873.00
599.39	900.00
599.65	902.00
599.91	841.00
600.16	855.00
600.42	909.00
600.67	919.00
600.93	862.00
601.19	906.00
601.44	953.00
601.70	918.00
601.95	870.00
602.21	889.00
602.47	890.00
602.72	900.00
602.98	849.00
603.23	873.00
603.49	908.00
603.75	918.00
604.00	865.00
604.26	874.00
604.51	887.00
604.77	928.00
605.03	857.00
605.28	858.00
605.54	918.00
605.79	921.00
606.05	844.00
606.31	872.00
606.56	913.00
606.82	920.00
607.07	872.00
607.33	874.00
607.59	897.00
607.84	890.00
608.10	859.00
608.35	881.00
608.61	909.00
608.86	923.00
609.12	894.00
609.38	915.00
609.63	930.00
609.89	901.00
610.14	848.00
610.40	849.00
610.65	889.00
610.91	901.00
611.17	865.00
611.42	876.00
611.68	919.00
611.93	934.00
612.19	903.00
612.44	885.00
612.70	916.00
612.96	874.00
613.21	868.00
613.47	872.00
613.72	887.00
613.98	910.00
614.23	882.00
614.49	887.00
614.75	906.00
615.00	890.00
615.26	880.00
615.51	854.00
615.77	901.00
616.02	917.00
616.28	877.00
616.53	876.00
616.79	898.00
617.05	883.00
617.30	858.00
617.56	886.00
617.81	937.00
618.07	900.00
618.32	880.00
618.58	901.00
618.83	921.00
619.09	929.00
619.34	866.00
619.60	878.00
619.86	920.00
620.11	936.00
620.37	893.00
620.62	880.00
620.88	924.00
621.13	919.00
621.39	884.00
621.64	902.00
621.90	924.00
622.15	914.00
622.41	890.00
622.66	891.00
622.92	898.00
623.18	923.00
623.43	863.00
623.69	887.00
623.94	940.00
624.20	954.00
624.45	920.00
624.71	915.00
624.96	920.00
625.22	968.00
625.47	919.00
625.73	930.00
625.98	948.00
626.24	937.00
626.49	901.00
626.75	914.00
627.00	957.00
627.26	943.00
627.51	924.00
627.77	938.00
628.02	937.00
628.28	971.00
628.53	936.00
628.79	971.00
629.05	982.00
629.30	954.00
629.56	957.00
629.81	962.00
630.07	964.00
630.32	976.00
630.58	976.00
630.83	981.00
631.09	1015.00
631.34	998.00
631.60	959.00
631.85	975.00
632.11	992.00
632.36	1019.00
632.62	976.00
632.87	992.00
633.13	1040.00
633.38	1033.00
633.64	1034.00
633.89	1049.00
634.15	1069.00
634.40	1109.00
634.66	1059.00
634.91	1059.00
635.17	1081.00
635.42	1126.00
635.68	1085.00
635.93	1078.00
636.18	1117.00
636.44	1148.00
636.69	1101.00
636.95	1079.00
637.20	1118.00
637.46	1126.00
637.71	1100.00
637.97	1100.00
638.22	1097.00
638.48	1099.00
638.73	1082.00
638.99	1066.00
639.24	1126.00
639.50	1099.00
639.75	1061.00
640.01	1080.00
640.26	1113.00
640.52	1114.00
640.77	1056.00
641.03	1104.00
641.28	1141.00
641.54	1109.00
641.79	1042.00
642.04	1054.00
642.30	1050.00
642.55	1053.00
642.81	1026.00
643.06	1044.00
643.32	1073.00
643.57	1073.00
643.83	987.00
644.08	949.00
644.34	977.00
644.59	1021.00
644.85	985.00
645.10	972.00
645.35	985.00
645.61	977.00
645.86	933.00
646.12	962.00
646.37	1016.00
646.63	988.00
646.88	897.00
647.14	933.00
647.39	967.00
647.65	982.00
647.90	931.00
648.15	946.00
648.41	946.00
648.66	942.00
648.92	899.00
649.17	913.00
649.43	932.00
649.68	925.00
649.94	902.00
650.19	903.00
650.44	917.00
650.70	914.00
650.95	866.00
651.21	911.00
651.46	961.00
651.72	938.00
651.97	914.00
652.23	900.00
652.48	923.00
652.73	921.00
652.99	894.00
653.24	906.00
653.50	913.00
653.75	905.00
654.01	880.00
654.26	886.00
654.51	893.00
654.77	914.00
655.02	881.00
655.28	874.00
655.53	881.00
655.79	896.00
656.04	895.00
656.29	898.00
656.55	893.00
656.80	923.00
657.06	865.00
657.31	878.00
657.56	885.00
657.82	876.00
658.07	867.00
658.33	906.00
658.58	904.00
658.84	921.00
659.09	881.00
659.34	882.00
659.60	899.00
659.85	902.00
660.11	878.00
660.36	888.00
660.61	884.00
660.87	870.00
661.12	863.00
661.38	880.00
661.63	894.00
661.88	895.00
662.14	897.00
662.39	890.00
662.65	919.00
662.90	953.00
663.15	878.00
663.41	884.00
663.66	945.00
663.92	954.00
664.17	885.00
664.42	910.00
664.68	928.00
664.93	903.00
665.19	841.00
665.44	878.00
665.69	878.00
665.95	900.00
666.20	863.00
666.45	906.00
666.71	905.00
666.96	914.00
667.22	856.00
667.47	886.00
667.72	875.00
667.98	905.00
668.23	859.00
668.49	888.00
668.74	908.00
668.99	905.00
669.25	873.00
669.50	876.00
669.75	885.00
670.01	894.00
670.26	851.00
670.52	886.00
670.77	910.00
671.02	886.00
671.28	876.00
671.53	900.00
671.78	913.00
672.04	913.00
672.29	865.00
672.54	870.00
672.80	899.00
673.05	905.00
673.31	862.00
673.56	906.00
673.81	935.00
674.07	916.00
674.32	884.00
674.57	892.00
674.83	876.00
675.08	899.00
675.33	870.00
675.59	886.00
675.84	917.00
676.09	901.00
676.35	885.00
676.60	898.00
676.86	897.00
677.11	917.00
677.36	888.00
677.62	896.00
677.87	952.00
678.12	951.00
678.38	864.00
678.63	890.00
678.88	923.00
679.14	928.00
679.39	853.00
679.64	894.00
679.90	884.00
680.15	922.00
680.40	885.00
680.66	865.00
680.91	904.00
681.16	898.00
681.42	870.00
681.67	870.00
681.92	906.00
682.18	959.00
682.43	876.00
682.68	870.00
682.94	889.00
683.19	882.00
683.44	855.00
683.70	880.00
683.95	895.00
684.20	880.00
684.46	877.00
684.71	897.00
684.96	871.00
685.22	900.00
685.47	873.00
685.72	904.00
685.98	902.00
686.23	870.00
686.48	856.00
686.74	908.00
686.99	929.00
687.24	900.00
687.50	866.00
687.75	871.00
688.00	886.00
688.25	903.00
688.51	884.00
688.76	907.00
689.01	869.00
689.27	883.00
689.52	843.00
689.77	883.00
690.03	858.00
690.28	885.00
690.53	885.00
690.79	881.00
691.04	880.00
691.29	906.00
691.54	846.00
691.80	889.00
692.05	901.00
692.30	907.00
692.56	869.00
692.81	881.00
693.06	886.00
693.32	869.00
693.57	859.00
693.82	914.00
694.07	926.00
694.33	913.00
694.58	861.00
694.83	884.00
695.09	885.00
695.34	919.00
695.59	898.00
695.84	892.00
696.10	920.00
696.35	903.00
696.60	835.00
696.86	871.00
697.11	898.00
697.36	922.00
697.61	878.00
697.87	892.00
698.12	894.00
698.37	909.00
698.63	892.00
698.88	873.00
699.13	884.00
699.38	899.00
699.64	855.00
699.89	875.00
700.14	887.00
700.39	875.00
700.65	873.00
700.90	917.00
701.15	910.00
701.40	904.00
701.66	863.00
701.91	878.00
702.16	882.00
702.42	884.00
702.67	845.00
702.92	854.00
703.17	885.00
703.43	902.00
703.68	876.00
703.93	917.00
704.18	928.00
704.44	892.00
704.69	889.00
704.94	909.00
705.19	900.00
705.45	925.00
705.70	889.00
705.95	869.00
706.20	896.00
706.46	918.00
706.71	875.00
706.96	878.00
707.21	889.00
707.47	894.00
707.72	877.00
707.97	898.00
708.22	930.00
708.48	921.00
708.73	870.00
708.98	857.00
709.23	878.00
709.49	897.00
709.74	873.00
709.99	874.00
710.24	881.00
710.50	904.00
710.75	899.00
711.00	895.00
711.25	899.00
711.50	890.00
711.76	856.00
712.01	877.00
712.26	872.00
712.51	891.00
712.77	882.00
713.02	884.00
713.27	886.00
713.52	882.00
713.78	865.00
714.03	883.00
714.28	884.00
714.53	915.00
714.78	881.00
715.04	906.00
715.29	906.00
715.54	915.00
715.79	861.00
716.05	903.00
716.30	909.00
716.55	905.00
716.80	882.00
717.05	898.00
717.31	909.00
717.56	908.00
717.81	894.00
718.06	873.00
718.31	862.00
718.57	893.00
718.82	876.00
719.07	909.00
719.32	895.00
719.57	916.00
719.83	864.00
720.08	891.00
720.33	888.00
720.58	885.00
720.83	850.00
721.09	904.00
721.34	920.00
721.59	917.00
721.84	878.00
722.09	877.00
722.35	890.00
722.60	889.00
722.85	860.00
723.10	886.00
723.35	879.00
723.61	897.00
723.86	910.00
724.11	891.00
724.36	893.00
724.61	895.00
724.87	882.00
725.12	883.00
725.37	869.00
725.62	855.00
725.87	859.00
726.12	856.00
726.38	856.00
726.63	886.00
726.88	873.00
727.13	897.00
727.38	896.00
727.64	898.00
727.89	869.00
728.14	881.00
728.39	877.00
728.64	901.00
728.89	879.00
729.15	901.00
729.40	905.00
729.65	925.00
729.90	847.00
730.15	888.00
730.40	902.00
730.66	893.00
730.91	886.00
731.16	900.00
731.41	897.00
731.66	897.00
731.91	874.00
732.17	908.00
732.42	920.00
732.67	902.00
732.92	848.00
733.17	879.00
733.42	897.00
733.68	888.00
733.93	847.00
734.18	886.00
734.43	880.00
734.68	886.00
734.93	865.00
735.18	901.00
735.44	910.00
735.69	888.00
735.94	846.00
736.19	878.00
736.44	880.00
736.69	933.00
736.95	903.00
737.20	900.00
737.45	894.00
737.70	909.00
737.95	898.00
738.20	914.00
738.45	922.00
738.70	910.00
738.96	894.00
739.21	914.00
739.46	914.00
739.71	931.00
739.96	897.00
740.21	920.00
740.46	955.00
740.72	939.00
740.97	869.00
741.22	902.00
741.47	873.00
741.72	903.00
741.97	848.00
742.22	879.00
742.47	886.00
742.73	902.00
742.98	866.00
743.23	870.00
743.48	865.00
743.73	897.00
743.98	867.00
744.23	879.00
744.48	898.00
744.74	872.00
744.99	841.00
745.24	892.00
745.49	900.00
745.74	911.00
745.99	871.00
746.24	876.00
746.49	859.00
746.74	880.00
747.00	892.00
747.25	898.00
747.50	863.00
747.75	881.00
748.00	850.00
748.25	869.00
748.50	873.00
748.75	910.00
749.00	893.00
749.26	919.00
749.51	893.00
749.76	915.00
750.01	886.00
750.26	898.00
750.51	931.00
750.76	909.00
751.01	870.00
751.26	886.00
751.51	890.00
751.77	905.00
752.02	879.00
752.27	865.00
752.52	873.00
752.77	898.00
753.02	886.00
753.27	902.00
753.52	884.00
753.77	877.00
754.02	854.00
754.27	875.00
754.52	860.00
754.78	883.00
755.03	868.00
755.28	882.00
755.53	890.00
755.78	904.00
756.03	861.00
756.28	893.00
756.53	890.00
756.78	909.00
757.03	878.00
757.28	902.00
757.53	910.00
757.79	892.00
758.04	863.00
758.29	913.00
758.54	911.00
758.79	913.00
759.04	867.00
759.29	864.00
759.54	870.00
759.79	890.00
760.04	892.00
760.29	884.00
760.54	873.00
760.79	893.00
761.04	869.00
761.29	881.00
761.55	884.00
761.80	891.00
762.05	846.00
762.30	872.00
762.55	883.00
762.80	906.00
763.05	902.00
763.30	909.00
763.55	920.00
763.80	925.00
764.05	858.00
764.30	879.00
764.55	910.00
764.80	893.00
765.05	876.00
765.30	912.00
765.55	894.00
765.80	884.00
766.05	826.00
766.30	884.00
766.56	887.00
766.81	900.00
767.06	889.00
767.31	897.00
767.56	880.00
767.81	881.00
768.06	846.00
768.31	882.00
768.56	883.00
768.81	938.00
769.06	867.00
769.31	892.00
769.56	888.00
769.81	921.00
770.06	871.00
770.31	865.00
770.56	882.00
770.81	867.00
771.06	858.00
771.31	881.00
771.56	885.00
771.81	902.00
772.06	851.00
772.31	887.00
772.56	886.00
772.81	927.00
773.06	876.00
773.31	887.00
773.56	877.00
773.81	860.00
774.06	845.00
774.31	871.00
774.56	889.00
774.81	929.00
775.06	885.00
775.31	900.00
775.56	902.00
775.81	877.00
776.06	846.00
776.31	876.00
776.56	894.00
776.82	904.00
777.07	868.00
777.32	889.00
777.57	902.00
777.82	942.00
778.07	870.00
778.32	870.00
778.57	905.00
778.82	909.00
779.07	887.00
779.32	874.00
779.57	850.00
779.82	873.00
780.07	851.00
780.32	896.00
780.56	895.00
780.81	935.00
781.06	857.00
781.31	870.00
781.56	917.00
781.81	912.00
782.06	873.00
782.31	904.00
782.56	899.00
782.81	922.00
783.06	877.00
783.31	892.00
783.56	867.00
783.81	907.00
784.06	883.00
784.31	884.00
784.56	859.00
784.81	924.00
785.06	891.00
785.31	893.00
785.56	862.00
785.81	853.00
786.06	843.00
786.31	886.00
786.56	884.00
786.81	906.00
787.06	877.00
787.31	894.00
787.56	872.00
787.81	876.00
788.06	851.00
788.31	887.00
788.56	862.00
788.81	909.00
789.06	872.00
789.31	889.00
789.56	893.00
789.81	890.00
790.06	875.00
790.31	909.00
790.56	900.00
790.80	896.00
791.05	882.00
791.30	856.00
791.55	865.00
791.80	895.00
792.05	872.00
792.30	871.00
792.55	863.00
792.80	883.00
793.05	870.00
793.30	892.00
793.55	893.00
793.80	914.00
794.05	881.00
794.30	899.00
794.55	893.00
794.80	897.00
795.05	858.00
795.30	856.00
795.54	860.00
795.79	906.00
796.04	875.00
796.29	880.00
796.54	868.00
796.79	913.00
797.04	892.00
797.29	887.00
797.54	898.00
797.79	906.00
798.04	869.00
798.29	880.00
798.54	863.00
798.79	876.00
799.04	854.00
799.29	889.00
799.53	904.00
799.78	885.00
800.03	857.00
800.28	859.00
800.53	881.00
800.78	925.00
801.03	879.00
801.28	886.00
801.53	880.00
801.78	911.00
802.03	866.00
802.28	874.00
802.52	897.00
802.77	918.00
803.02	889.00
803.27	897.00
803.52	862.00
803.77	905.00
804.02	885.00
804.27	901.00
804.52	898.00
804.77	917.00
805.02	877.00
805.27	891.00
805.51	899.00
805.76	919.00
806.01	878.00
806.26	882.00
806.51	882.00
806.76	928.00
807.01	882.00
807.26	859.00
807.51	893.00
807.76	876.00
808.00	850.00
808.25	887.00
808.50	895.00
808.75	879.00
809.00	867.00
809.25	876.00
809.50	877.00
809.75	914.00
810.00	884.00
810.24	880.00
810.49	849.00
810.74	862.00
810.99	880.00
811.24	878.00
811.49	905.00
811.74	912.00
811.99	866.00
812.24	896.00
812.48	872.00
812.73	874.00
812.98	840.00
813.23	856.00
813.48	880.00
813.73	871.00
813.98	841.00
814.23	874.00
814.47	870.00
814.72	867.00
814.97	852.00
815.22	895.00
815.47	875.00
815.72	881.00
815.97	851.00
816.22	870.00
816.46	872.00
816.71	903.00
816.96	878.00
817.21	885.00
817.46	876.00
817.71	891.00
817.96	853.00
818.20	860.00
818.45	853.00
818.70	890.00
818.95	845.00
819.20	876.00
819.45	872.00
819.70	888.00
819.94	843.00
820.19	872.00
820.44	878.00
820.69	923.00
820.94	872.00
821.19	900.00
821.44	928.00
821.68	940.00
821.93	887.00
822.18	909.00
822.43	901.00
822.68	910.00
822.93	877.00
823.17	883.00
823.42	883.00
823.67	884.00
823.92	879.00
824.17	874.00
824.42	893.00
824.67	909.00
824.91	861.00
825.16	886.00
825.41	875.00
825.66	881.00
825.91	853.00
826.16	880.00
826.40	889.00
826.65	905.00
826.90	864.00
827.15	881.00
827.40	908.00
827.65	928.00
827.89	839.00
828.14	873.00
828.39	897.00
828.64	900.00
828.89	870.00
829.13	874.00
829.38	869.00
829.63	899.00
829.88	854.00
830.13	865.00
830.38	874.00
830.62	894.00
830.87	871.00
831.12	899.00
831.37	921.00
831.62	928.00
831.86	866.00
832.11	872.00
832.36	861.00
832.61	901.00
832.86	872.00
833.10	897.00
833.35	898.00
833.60	919.00
833.85	881.00
834.10	889.00
834.35	924.00
834.59	914.00
834.84	869.00
835.09	907.00
835.34	870.00
835.59	895.00
835.83	879.00
836.08	880.00
836.33	894.00
836.58	897.00
836.83	860.00
837.07	882.00
837.32	885.00
837.57	869.00
837.82	866.00
838.06	904.00
838.31	934.00
838.56	933.00
838.81	868.00
839.06	904.00
839.30	885.00
839.55	914.00
839.80	877.00
840.05	901.00
840.30	922.00
840.54	933.00
840.79	869.00
841.04	876.00
841.29	889.00
841.53	897.00
841.78	857.00
842.03	853.00
842.28	861.00
842.53	867.00
842.77	882.00
843.02	886.00
843.27	884.00
843.52	886.00
843.76	857.00
844.01	888.00
844.26	874.00
844.51	892.00
844.75	870.00
845.00	864.00
845.25	877.00
845.50	894.00
845.75	860.00
845.99	892.00
846.24	904.00
846.49	909.00
846.74	850.00
846.98	845.00
847.23	873.00
847.48	902.00
847.73	860.00
847.97	871.00
848.22	900.00
848.47	916.00
848.72	852.00
848.96	863.00
849.21	889.00
849.46	870.00
849.71	870.00
849.95	882.00
850.20	878.00
850.45	910.00
850.70	860.00
850.94	885.00
851.19	889.00
851.44	881.00
851.69	846.00
851.93	879.00
852.18	883.00
852.43	882.00
852.68	881.00
852.92	924.00
853.17	926.00
853.42	905.00
853.66	897.00
853.91	906.00
854.16	887.00
854.41	933.00
854.65	878.00
854.90	887.00
855.15	883.00
855.40	894.00
855.64	871.00
855.89	871.00
856.14	872.00
856.39	872.00
856.63	847.00
856.88	867.00
857.13	879.00
857.37	874.00
857.62	839.00
857.87	848.00
858.12	878.00
858.36	924.00
858.61	835.00
858.86	859.00
859.10	906.00
859.35	905.00
859.60	852.00
859.85	843.00
860.09	853.00
860.34	910.00
860.59	888.00
860.83	876.00
861.08	866.00
861.33	909.00
861.58	865.00
861.82	866.00
862.07	873.00
862.32	888.00
862.56	867.00
862.81	876.00
863.06	868.00
863.30	877.00
863.55	878.00
863.80	890.00
864.05	885.00
864.29	870.00
864.54	872.00
864.79	899.00
865.03	898.00
865.28	910.00
865.53	871.00
865.77	852.00
866.02	908.00
866.27	931.00
866.51	890.00
866.76	858.00
867.01	860.00
867.26	907.00
867.50	861.00
867.75	861.00
868.00	881.00
868.24	904.00
868.49	853.00
868.74	891.00
868.98	883.00
869.23	893.00
869.48	873.00
869.72	878.00
869.97	884.00
870.22	909.00
870.46	881.00
870.71	876.00
870.96	883.00
871.20	892.00
871.45	853.00
871.70	882.00
871.94	909.00
872.19	907.00
872.44	892.00
872.68	885.00
872.93	889.00
873.18	901.00
873.42	868.00
873.67	892.00
873.92	899.00
874.16	887.00
874.41	859.00
874.66	892.00
874.90	895.00
875.15	922.00
875.40	901.00
875.64	897.00
875.89	883.00
876.14	906.00
876.38	873.00
876.63	893.00
876.88	902.00
877.12	885.00
877.37	847.00
877.62	900.00
877.86	891.00
878.11	900.00
878.36	861.00
878.60	868.00
878.85	889.00
879.09	878.00
879.34	861.00
879.59	884.00
879.83	910.00
880.08	939.00
880.33	904.00
880.57	897.00
880.82	897.00
881.07	888.00
881.31	853.00
881.56	867.00
881.80	863.00
882.05	869.00
882.30	847.00
882.54	879.00
882.79	909.00
883.04	945.00
883.28	902.00
883.53	880.00
883.77	905.00
884.02	922.00
884.27	845.00
884.51	844.00
884.76	881.00
885.01	906.00
885.25	861.00
885.50	893.00
885.74	861.00
885.99	900.00
886.24	876.00
886.48	878.00
886.73	916.00
886.98	927.00
887.22	877.00
887.47	875.00
887.71	897.00
887.96	898.00
888.21	893.00
888.45	873.00
888.70	893.00
888.94	917.00
889.19	857.00
889.44	862.00
889.68	888.00
889.93	924.00
890.17	876.00
890.42	864.00
890.67	899.00
890.91	965.00
891.16	870.00
891.40	848.00
891.65	877.00
891.90	918.00
892.14	847.00
892.39	880.00
892.63	890.00
892.88	924.00
893.13	878.00
893.37	851.00
893.62	861.00
893.86	904.00
894.11	862.00
894.36	877.00
894.60	877.00
894.85	888.00
895.09	867.00
895.34	899.00
895.59	897.00
895.83	873.00
896.08	848.00
896.32	857.00
896.57	894.00
896.81	901.00
897.06	856.00
897.31	880.00
897.55	896.00
897.80	887.00
898.04	848.00
898.29	883.00
898.53	888.00
898.78	894.00
899.03	885.00
899.27	886.00
899.52	893.00
899.76	913.00
900.01	862.00
900.25	885.00
900.50	888.00
900.75	903.00
900.99	880.00
901.24	938.00
901.48	896.00
901.73	889.00
901.97	869.00
902.22	889.00
902.47	910.00
902.71	897.00
902.96	850.00
903.20	873.00
903.45	905.00
903.69	910.00
903.94	887.00
904.18	861.00
904.43	869.00
904.68	885.00
904.92	848.00
905.17	877.00
905.41	910.00
905.66	891.00
905.90	894.00
906.15	865.00
906.39	891.00
906.64	912.00
906.88	864.00
907.13	853.00
907.38	884.00
907.62	913.00
907.87	867.00
908.11	882.00
908.36	882.00
908.60	905.00
908.85	824.00
909.09	857.00
909.34	885.00
909.58	895.00
909.83	868.00
910.07	876.00
910.32	944.00
910.56	967.00
910.81	870.00
911.06	898.00
911.30	892.00
911.55	883.00
911.79	848.00
912.04	870.00
912.28	868.00
912.53	890.00
912.77	889.00
913.02	878.00
913.26	870.00
913.51	873.00
913.75	855.00
914.00	865.00
914.24	886.00
914.49	900.00
914.73	861.00
914.98	889.00
915.22	923.00
915.47	897.00
915.71	865.00
915.96	896.00
916.20	874.00
916.45	858.00
916.69	843.00
916.94	860.00
917.18	870.00
917.43	889.00
917.67	860.00
917.92	863.00
918.16	882.00
918.41	888.00
918.65	858.00
918.90	857.00
919.14	857.00
919.39	896.00
919.63	856.00
919.88	849.00
920.12	870.00
920.37	893.00
920.61	865.00
920.86	888.00
921.10	899.00
921.35	885.00
921.59	860.00
921.84	873.00
922.08	888.00
922.33	905.00
922.57	855.00
922.82	857.00
923.06	897.00
923.31	896.00
923.55	846.00
923.80	877.00
924.04	869.00
924.29	905.00
924.53	872.00
924.78	870.00
925.02	865.00
925.27	876.00
925.51	886.00
925.76	909.00
926.00	896.00
926.25	888.00
926.49	856.00
926.73	890.00
926.98	890.00
927.22	912.00
927.47	888.00
927.71	877.00
927.96	897.00
928.20	894.00
928.45	887.00
928.69	920.00
928.94	903.00
929.18	882.00
929.43	900.00
929.67	879.00
929.91	882.00
930.16	887.00
930.40	842.00
930.65	855.00
930.89	885.00
931.14	930.00
931.38	872.00
931.63	906.00
931.87	909.00
932.12	887.00
932.36	835.00
932.60	856.00
932.85	900.00
933.09	881.00
933.34	859.00
933.58	903.00
933.83	883.00
934.07	900.00
934.32	885.00
934.56	917.00
934.80	938.00
935.05	931.00
935.29	890.00
935.54	894.00
935.78	881.00
936.03	884.00
936.27	842.00
936.52	880.00
936.76	877.00
937.00	889.00
937.25	871.00
937.49	884.00
937.74	910.00
937.98	903.00
938.23	845.00
938.47	849.00
938.71	867.00
938.96	884.00
939.20	853.00
939.45	868.00
939.69	884.00
939.94	921.00
940.18	853.00
940.42	876.00
940.67	891.00
940.91	879.00
941.16	869.00
941.40	863.00
941.64	872.00
941.89	901.00
942.13	838.00
942.38	898.00
942.62	954.00
942.87	918.00
943.11	889.00
943.35	874.00
943.60	901.00
943.84	913.00
944.09	884.00
944.33	900.00
944.57	900.00
944.82	880.00
945.06	857.00
945.31	884.00
945.55	868.00
945.79	909.00
946.04	876.00
946.28	864.00
946.53	874.00
946.77	896.00
947.01	850.00
947.26	899.00
947.50	883.00
947.75	901.00
947.99	878.00
948.23	904.00
948.48	892.00
948.72	896.00
948.97	883.00
949.21	893.00
949.45	892.00
949.70	907.00
949.94	874.00
950.18	892.00
950.43	893.00
950.67	904.00
950.92	875.00
951.16	872.00
951.40	875.00
951.65	889.00
951.89	870.00
952.13	878.00
952.38	888.00
952.62	900.00
952.87	864.00
953.11	885.00
953.35	914.00
953.60	906.00
953.84	828.00
954.08	845.00
954.33	879.00
954.57	885.00
954.82	879.00
955.06	880.00
955.30	871.00
955.55	882.00
955.79	877.00
956.03	874.00
956.28	880.00
956.52	884.00
956.76	870.00
957.01	904.00
957.25	893.00
957.50	899.00
957.74	861.00
957.98	860.00
958.23	882.00
958.47	876.00
958.71	894.00
958.96	916.00
959.20	914.00
959.44	888.00
959.69	861.00
959.93	886.00
960.17	893.00
960.42	899.00
960.66	885.00
960.90	896.00
961.15	877.00
961.39	887.00
961.64	834.00
961.88	853.00
962.12	898.00
962.37	910.00
962.61	870.00
962.85	856.00
963.10	890.00
963.34	875.00
963.58	844.00
963.83	877.00
964.07	882.00
964.31	879.00
964.56	876.00
964.80	869.00
965.04	881.00
965.29	897.00
965.53	871.00
965.77	870.00
966.02	838.00
966.26	868.00
966.50	855.00
966.74	877.00
966.99	897.00
967.23	888.00
967.47	875.00
967.72	870.00
967.96	896.00
968.20	904.00
968.45	862.00
968.69	867.00
968.93	871.00
969.18	890.00
969.42	892.00
969.66	882.00
969.91	881.00
970.15	916.00
970.39	852.00
970.64	892.00
970.88	909.00
971.12	903.00
971.36	877.00
971.61	875.00
971.85	875.00
972.09	887.00
972.34	870.00
972.58	882.00
972.82	910.00
973.07	929.00
973.31	850.00
973.55	879.00
973.79	886.00
974.04	923.00
974.28	885.00
974.52	867.00
974.77	865.00
975.01	916.00
975.25	877.00
975.50	891.00
975.74	900.00
975.98	906.00
976.22	874.00
976.47	882.00
976.71	912.00
976.95	906.00
977.20	893.00
977.44	890.00
977.68	910.00
977.92	894.00
978.17	864.00
978.41	869.00
978.65	899.00
978.90	875.00
979.14	868.00
979.38	885.00
979.62	887.00
979.87	881.00
980.11	841.00
980.35	876.00
980.59	896.00
980.84	903.00
981.08	869.00
981.32	857.00
981.57	877.00
981.81	888.00
982.05	879.00
982.29	869.00
982.54	897.00
982.78	891.00
983.02	864.00
983.26	894.00
983.51	905.00
983.75	914.00
983.99	878.00
984.23	885.00
984.48	888.00
984.72	913.00
984.96	864.00
985.20	870.00
985.45	923.00
985.69	905.00
985.93	885.00
986.17	889.00
986.42	896.00
986.66	890.00
986.90	843.00
987.14	851.00
987.39	894.00
987.63	876.00
987.87	837.00
988.11	868.00
988.36	899.00
988.60	901.00
988.84	888.00
989.08	863.00
989.33	914.00
989.57	908.00
989.81	842.00
990.05	855.00
990.30	865.00
990.54	866.00
990.78	863.00
991.02	857.00
991.27	876.00
991.51	876.00
991.75	860.00
991.99	900.00
992.23	866.00
992.48	859.00
992.72	837.00
992.96	855.00
993.20	852.00
993.45	883.00
993.69	888.00
993.93	860.00
994.17	898.00
994.41	900.00
994.66	842.00
994.90	862.00
995.14	903.00
995.38	898.00
995.63	874.00
995.87	873.00
996.11	915.00
996.35	898.00
996.59	852.00
996.84	865.00
997.08	901.00
997.32	891.00
997.56	875.00
997.80	861.00
998.05	852.00
998.29	866.00
998.53	863.00
998.77	898.00
999.01	916.00
999.26	917.00
999.50	862.00
999.74	853.00
999.98	882.00
1000.22	892.00
1000.47	848.00
1000.71	869.00
1000.95	899.00
1001.19	889.00
1001.43	874.00
1001.68	865.00
1001.92	888.00
1002.16	874.00
1002.40	843.00
1002.64	873.00
1002.89	892.00
1003.13	891.00
1003.37	873.00
1003.61	868.00
1003.85	889.00
1004.10	890.00
1004.34	862.00
1004.58	859.00
1004.82	892.00
1005.06	901.00
1005.30	866.00
1005.55	863.00
1005.79	884.00
1006.03	866.00
1006.27	857.00
1006.51	874.00
1006.76	890.00
1007.00	911.00
1007.24	870.00
1007.48	866.00
1007.72	898.00
1007.96	876.00
1008.21	865.00
1008.45	900.00
1008.69	900.00
1008.93	911.00
1009.17	893.00
1009.41	904.00
1009.66	914.00
1009.90	861.00
1010.14	828.00
1010.38	872.00
1010.62	904.00
1010.86	915.00
1011.10	872.00
1011.35	874.00
1011.59	894.00
1011.83	851.00
1012.07	842.00
1012.31	876.00
1012.55	892.00
1012.80	903.00
1013.04	879.00
1013.28	881.00
1013.52	883.00
1013.76	914.00
1014.00	869.00
1014.24	850.00
1014.49	875.00
1014.73	919.00
1014.97	906.00
1015.21	881.00
1015.45	923.00
1015.69	871.00
1015.93	872.00
1016.18	880.00
1016.42	908.00
1016.66	909.00
1016.90	867.00
1017.14	848.00
1017.38	864.00
1017.62	882.00
1017.87	880.00
1018.11	876.00
1018.35	882.00
1018.59	892.00
1018.83	847.00
1019.07	883.00
1019.31	899.00
1019.55	905.00
1019.80	866.00
1020.04	878.00
1020.28	880.00
1020.52	894.00
1020.76	858.00
1021.00	837.00
1021.24	868.00
1021.48	868.00
1021.73	865.00
1021.97	878.00
1022.21	884.00
1022.45	908.00
1022.69	869.00
1022.93	873.00
1023.17	897.00
1023.41	914.00
1023.65	872.00
1023.90	900.00
1024.14	907.00
1024.38	879.00
1024.62	841.00
1024.86	857.00
1025.10	889.00
1025.34	881.00
1025.58	858.00
1025.82	868.00
1026.07	920.00
1026.31	906.00
1026.55	862.00
1026.79	861.00
1027.03	881.00
1027.27	896.00
1027.51	830.00
1027.75	833.00
1027.99	871.00
1028.23	910.00
1028.47	877.00
1028.72	860.00
1028.96	896.00
1029.20	890.00
1029.44	886.00
1029.68	890.00
1029.92	894.00
1030.16	910.00
1030.40	843.00
1030.64	858.00
1030.88	869.00
1031.12	862.00
1031.37	839.00
1031.61	877.00
1031.85	910.00
1032.09	914.00
1032.33	883.00
1032.57	913.00
1032.81	879.00
1033.05	904.00
1033.29	882.00
1033.53	868.00
1033.77	923.00
1034.01	924.00
1034.25	880.00
1034.50	870.00
1034.74	884.00
1034.98	901.00
1035.22	874.00
1035.46	876.00
1035.70	921.00
1035.94	898.00
1036.18	864.00
1036.42	856.00
1036.66	849.00
1036.90	882.00
1037.14	853.00
1037.38	867.00
1037.62	900.00
1037.86	880.00
1038.10	874.00
1038.35	853.00
1038.59	901.00
1038.83	904.00
1039.07	904.00
1039.31	906.00
1039.55	878.00
1039.79	886.00
1040.03	834.00
1040.27	854.00
1040.51	906.00
1040.75	926.00
1040.99	888.00
1041.23	894.00
1041.47	886.00
1041.71	920.00
1041.95	889.00
1042.19	869.00
1042.43	909.00
1042.67	914.00
1042.91	888.00
1043.15	875.00
1043.39	916.00
1043.64	894.00
1043.88	860.00
1044.12	893.00
1044.36	951.00
1044.60	937.00
1044.84	897.00
1045.08	873.00
1045.32	886.00
1045.56	901.00
1045.80	867.00
1046.04	862.00
1046.28	904.00
1046.52	908.00
1046.76	856.00
1047.00	858.00
1047.24	893.00
1047.48	893.00
1047.72	869.00
1047.96	874.00
1048.20	893.00
1048.44	886.00
1048.68	851.00
1048.92	866.00
1049.16	874.00
1049.40	897.00
1049.64	879.00
1049.88	898.00
1050.12	910.00
1050.36	922.00
1050.60	868.00
1050.84	874.00
1051.08	900.00
1051.32	890.00
1051.56	873.00
1051.80	863.00
1052.04	877.00
1052.28	913.00
1052.52	857.00
1052.76	851.00
1053.00	881.00
1053.24	906.00
1053.48	850.00
1053.72	859.00
1053.96	895.00
1054.20	902.00
1054.44	869.00
1054.68	904.00
1054.92	910.00
1055.16	867.00
1055.40	866.00
1055.64	881.00
1055.88	904.00
1056.12	926.00
1056.36	844.00
1056.60	867.00
1056.84	900.00
1057.08	882.00
1057.32	871.00
1057.56	870.00
1057.80	874.00
1058.04	905.00
1058.28	853.00
1058.52	876.00
1058.76	896.00
1059.00	905.00
1059.24	846.00
1059.48	861.00
1059.72	896.00
1059.96	888.00
1060.20	892.00
1060.44	902.00
1060.68	920.00
1060.92	894.00
1061.16	840.00
1061.40	865.00
1061.64	892.00
1061.88	905.00
1062.11	865.00
1062.35	863.00
1062.59	890.00
1062.83	938.00
1063.07	870.00
1063.31	850.00
1063.55	880.00
1063.79	906.00
1064.03	861.00
1064.27	857.00
1064.51	904.00
1064.75	915.00
1064.99	878.00
1065.23	872.00
1065.47	867.00
1065.71	900.00
1065.95	874.00
1066.19	873.00
1066.43	911.00
1066.67	902.00
1066.91	881.00
1067.15	872.00
1067.38	861.00
1067.62	890.00
1067.86	868.00
1068.10	881.00
1068.34	927.00
1068.58	916.00
1068.82	869.00
1069.06	832.00
1069.30	890.00
1069.54	901.00
1069.78	898.00
1070.02	888.00
1070.26	908.00
1070.50	933.00
1070.74	882.00
1070.98	897.00
1071.21	896.00
1071.45	892.00
1071.69	850.00
1071.93	873.00
1072.17	888.00
1072.41	905.00
1072.65	892.00
1072.89	910.00
1073.13	896.00
1073.37	884.00
1073.61	868.00
1073.85	883.00
1074.09	852.00
1074.32	879.00
1074.56	877.00
1074.80	940.00
1075.04	1172.00
1075.28	1020.00
1075.52	881.00
1075.76	884.00
1076.00	920.00
1076.24	901.00
1076.48	885.00
1076.72	892.00
1076.96	900.00
1077.19	902.00
1077.43	863.00
1077.67	892.00
1077.91	880.00
1078.15	867.00
1078.39	882.00
1078.63	862.00
1078.87	877.00
1079.11	891.00
1079.35	856.00
1079.58	864.00
1079.82	885.00
1080.06	896.00
1080.30	865.00
1080.54	894.00
1080.78	913.00
1081.02	883.00
1081.26	875.00
1081.50	875.00
1081.74	887.00
1081.97	914.00
1082.21	874.00
1082.45	889.00
1082.69	889.00
1082.93	872.00
1083.17	875.00
1083.41	863.00
1083.65	922.00
1083.88	919.00
1084.12	866.00
1084.36	878.00
1084.60	912.00
1084.84	909.00
1085.08	843.00
1085.32	866.00
1085.56	913.00
1085.80	894.00
1086.03	861.00
1086.27	848.00
1086.51	887.00
1086.75	910.00
1086.99	856.00
1087.23	859.00
1087.47	901.00
1087.70	884.00
1087.94	869.00
1088.18	900.00
1088.42	934.00
1088.66	889.00
1088.90	839.00
1089.14	868.00
1089.38	887.00
1089.61	916.00
1089.85	886.00
1090.09	859.00
1090.33	917.00
1090.57	910.00
1090.81	832.00
1091.05	873.00
1091.28	900.00
1091.52	905.00
1091.76	850.00
1092.00	871.00
1092.24	918.00
1092.48	927.00
1092.71	873.00
1092.95	910.00
1093.19	926.00
1093.43	884.00
1093.67	854.00
1093.91	889.00
1094.15	888.00
1094.38	901.00
1094.62	845.00
1094.86	845.00
1095.10	877.00
1095.34	874.00
1095.58	865.00
1095.81	872.00
1096.05	901.00
1096.29	918.00
1096.53	852.00
1096.77	889.00
1097.01	889.00
1097.24	913.00
1097.48	867.00
1097.72	888.00
1097.96	893.00
1098.20	889.00
1098.44	858.00
1098.67	841.00
1098.91	885.00
1099.15	902.00
1099.39	853.00
1099.63	866.00
1099.86	902.00
1100.10	886.00
1100.34	886.00
1100.58	884.00
1100.82	899.00
1101.06	890.00
1101.29	862.00
1101.53	869.00
1101.77	892.00
1102.01	871.00
1102.25	871.00
1102.48	910.00
1102.72	954.00
1102.96	902.00
1103.20	845.00
1103.44	872.00
1103.67	894.00
1103.91	914.00
1104.15	856.00
1104.39	869.00
1104.63	894.00
1104.86	865.00
1105.10	845.00
1105.34	894.00
1105.58	864.00
1105.82	880.00
1106.05	877.00
1106.29	890.00
1106.53	886.00
1106.77	929.00
1107.01	869.00
1107.24	885.00
1107.48	933.00
1107.72	921.00
1107.96	868.00
1108.20	882.00
1108.43	887.00
1108.67	898.00
1108.91	886.00
1109.15	870.00
1109.39	872.00
1109.62	868.00
1109.86	841.00
1110.10	881.00
1110.34	932.00
1110.57	940.00
1110.81	874.00
1111.05	865.00
1111.29	912.00
1111.53	915.00
1111.76	858.00
1112.00	921.00
1112.24	904.00
1112.48	889.00
1112.71	841.00
1112.95	871.00
1113.19	913.00
1113.43	888.00
1113.66	849.00
1113.90	890.00
1114.14	908.00
1114.38	897.00
1114.62	842.00
1114.85	890.00
1115.09	901.00
1115.33	942.00
1115.57	901.00
1115.80	866.00
1116.04	875.00
1116.28	882.00
1116.52	871.00
1116.75	878.00
1116.99	906.00
1117.23	906.00
1117.47	890.00
1117.70	911.00
1117.94	952.00
1118.18	897.00
1118.42	881.00
1118.65	897.00
1118.89	916.00
1119.13	912.00
1119.37	865.00
1119.60	891.00
1119.84	904.00
>>>>>End Processed Spectral Data<<<<<
