SpectraSuite Data File
++++++++++++++++++++++++++++++++++++
Date: Fri Dec 06 16:09:03 CET 2024
User: student
Dark Spectrum Present: No
Reference Spectrum Present: No
Number of Sampled Component Spectra: 1
Spectrometers: HR4C155
Integration Time (usec): 100000 (HR4C155)
Spectra Averaged: 1 (HR4C155)
Boxcar Smoothing: 0 (HR4C155)
Correct for Electrical Dark: No (HR4C155)
Strobe/Lamp Enabled: No (HR4C155)
Correct for Detector Non-linearity: No (HR4C155)
Correct for Stray Light: No (HR4C155)
Number of Pixels in Processed Spectrum: 3648
>>>>>Begin Processed Spectral Data<<<<<
195.39	689.00
195.66	689.00
195.93	689.00
196.20	678.00
196.46	718.00
196.73	839.00
197.00	862.00
197.27	850.00
197.54	881.00
197.81	876.00
198.08	857.00
198.35	888.00
198.61	911.00
198.88	862.00
199.15	846.00
199.42	881.00
199.69	906.00
199.96	890.00
200.23	899.00
200.49	889.00
200.76	910.00
201.03	899.00
201.30	892.00
201.57	941.00
201.84	935.00
202.11	874.00
202.38	906.00
202.64	916.00
202.91	945.00
203.18	899.00
203.45	959.00
203.72	1026.00
203.99	961.00
204.25	930.00
204.52	914.00
204.79	932.00
205.06	945.00
205.33	890.00
205.60	918.00
205.87	951.00
206.13	949.00
206.40	917.00
206.67	904.00
206.94	932.00
207.21	916.00
207.48	903.00
207.75	916.00
208.01	947.00
208.28	958.00
208.55	909.00
208.82	914.00
209.09	928.00
209.36	945.00
209.62	917.00
209.89	941.00
210.16	953.00
210.43	971.00
210.70	888.00
210.97	913.00
211.23	938.00
211.50	957.00
211.77	907.00
212.04	920.00
212.31	939.00
212.58	952.00
212.84	914.00
213.11	899.00
213.38	890.00
213.65	915.00
213.92	905.00
214.18	914.00
214.45	965.00
214.72	943.00
214.99	906.00
215.26	908.00
215.53	891.00
215.79	941.00
216.06	952.00
216.33	929.00
216.60	903.00
216.87	953.00
217.13	887.00
217.40	907.00
217.67	948.00
217.94	972.00
218.21	893.00
218.48	937.00
218.74	993.00
219.01	948.00
219.28	884.00
219.55	887.00
219.82	940.00
220.08	940.00
220.35	894.00
220.62	912.00
220.89	971.00
221.16	981.00
221.42	932.00
221.69	920.00
221.96	926.00
222.23	950.00
222.50	955.00
222.76	961.00
223.03	946.00
223.30	914.00
223.57	905.00
223.84	889.00
224.10	916.00
224.37	940.00
224.64	892.00
224.91	910.00
225.18	935.00
225.44	951.00
225.71	909.00
225.98	931.00
226.25	969.00
226.51	968.00
226.78	906.00
227.05	892.00
227.32	931.00
227.59	927.00
227.85	914.00
228.12	912.00
228.39	959.00
228.66	976.00
228.92	966.00
229.19	949.00
229.46	958.00
229.73	921.00
230.00	912.00
230.26	936.00
230.53	954.00
230.80	953.00
231.07	892.00
231.33	870.00
231.60	923.00
231.87	944.00
232.14	911.00
232.41	941.00
232.67	930.00
232.94	935.00
233.21	914.00
233.48	942.00
233.74	926.00
234.01	913.00
234.28	897.00
234.55	911.00
234.81	918.00
235.08	962.00
235.35	915.00
235.62	895.00
235.88	919.00
236.15	953.00
236.42	927.00
236.69	921.00
236.95	942.00
237.22	916.00
237.49	915.00
237.76	909.00
238.02	941.00
238.29	955.00
238.56	916.00
238.83	911.00
239.09	917.00
239.36	947.00
239.63	894.00
239.90	925.00
240.16	972.00
240.43	1003.00
240.70	912.00
240.97	923.00
241.23	933.00
241.50	935.00
241.77	906.00
242.04	905.00
242.30	881.00
242.57	906.00
242.84	890.00
243.11	906.00
243.37	888.00
243.64	954.00
243.91	901.00
244.18	893.00
244.44	887.00
244.71	898.00
244.98	921.00
245.24	916.00
245.51	920.00
245.78	942.00
246.05	890.00
246.31	893.00
246.58	933.00
246.85	916.00
247.12	895.00
247.38	924.00
247.65	917.00
247.92	926.00
248.18	901.00
248.45	926.00
248.72	918.00
248.99	942.00
249.25	882.00
249.52	916.00
249.79	935.00
250.05	942.00
250.32	915.00
250.59	912.00
250.86	910.00
251.12	921.00
251.39	885.00
251.66	923.00
251.92	945.00
252.19	951.00
252.46	899.00
252.73	936.00
252.99	939.00
253.26	958.00
253.53	905.00
253.79	920.00
254.06	931.00
254.33	917.00
254.60	882.00
254.86	908.00
255.13	950.00
255.40	969.00
255.66	913.00
255.93	936.00
256.20	927.00
256.46	943.00
256.73	910.00
257.00	922.00
257.26	943.00
257.53	954.00
257.80	925.00
258.07	937.00
258.33	980.00
258.60	944.00
258.87	886.00
259.13	907.00
259.40	907.00
259.67	951.00
259.93	917.00
260.20	915.00
260.47	922.00
260.73	915.00
261.00	910.00
261.27	913.00
261.53	969.00
261.80	954.00
262.07	900.00
262.34	907.00
262.60	894.00
262.87	926.00
263.14	889.00
263.40	927.00
263.67	904.00
263.94	930.00
264.20	905.00
264.47	874.00
264.74	880.00
265.00	907.00
265.27	889.00
265.54	920.00
265.80	949.00
266.07	959.00
266.34	888.00
266.60	909.00
266.87	929.00
267.14	931.00
267.40	885.00
267.67	876.00
267.94	931.00
268.20	930.00
268.47	886.00
268.74	893.00
269.00	930.00
269.27	902.00
269.54	871.00
269.80	883.00
270.07	928.00
270.33	918.00
270.60	903.00
270.87	932.00
271.13	918.00
271.40	927.00
271.67	852.00
271.93	875.00
272.20	920.00
272.47	901.00
272.73	863.00
273.00	911.00
273.27	931.00
273.53	960.00
273.80	908.00
274.07	888.00
274.33	913.00
274.60	939.00
274.86	900.00
275.13	907.00
275.40	912.00
275.66	954.00
275.93	890.00
276.20	882.00
276.46	917.00
276.73	913.00
277.00	888.00
277.26	916.00
277.53	947.00
277.79	937.00
278.06	909.00
278.33	952.00
278.59	957.00
278.86	915.00
279.13	902.00
279.39	909.00
279.66	926.00
279.93	948.00
280.19	896.00
280.46	908.00
280.72	901.00
280.99	916.00
281.26	905.00
281.52	897.00
281.79	948.00
282.05	941.00
282.32	916.00
282.59	898.00
282.85	941.00
283.12	931.00
283.39	884.00
283.65	913.00
283.92	935.00
284.18	951.00
284.45	919.00
284.72	911.00
284.98	910.00
285.25	909.00
285.51	927.00
285.78	930.00
286.05	920.00
286.31	916.00
286.58	880.00
286.84	895.00
287.11	906.00
287.38	916.00
287.64	910.00
287.91	895.00
288.17	934.00
288.44	926.00
288.71	885.00
288.97	909.00
289.24	929.00
289.50	909.00
289.77	916.00
290.04	883.00
290.30	879.00
290.57	926.00
290.83	882.00
291.10	884.00
291.37	921.00
291.63	924.00
291.90	951.00
292.16	933.00
292.43	932.00
292.70	919.00
292.96	869.00
293.23	876.00
293.49	889.00
293.76	931.00
294.02	882.00
294.29	894.00
294.56	929.00
294.82	921.00
295.09	902.00
295.35	910.00
295.62	935.00
295.89	960.00
296.15	895.00
296.42	883.00
296.68	899.00
296.95	907.00
297.21	922.00
297.48	899.00
297.75	908.00
298.01	945.00
298.28	887.00
298.54	916.00
298.81	916.00
299.07	944.00
299.34	886.00
299.61	904.00
299.87	943.00
300.14	919.00
300.40	927.00
300.67	908.00
300.93	929.00
301.20	953.00
301.46	903.00
301.73	924.00
302.00	944.00
302.26	913.00
302.53	905.00
302.79	913.00
303.06	936.00
303.32	964.00
303.59	878.00
303.85	876.00
304.12	904.00
304.39	925.00
304.65	888.00
304.92	912.00
305.18	948.00
305.45	948.00
305.71	902.00
305.98	922.00
306.24	907.00
306.51	899.00
306.77	896.00
307.04	918.00
307.31	940.00
307.57	946.00
307.84	873.00
308.10	885.00
308.37	900.00
308.63	907.00
308.90	902.00
309.16	909.00
309.43	944.00
309.69	931.00
309.96	911.00
310.22	902.00
310.49	902.00
310.76	919.00
311.02	870.00
311.29	901.00
311.55	917.00
311.82	919.00
312.08	919.00
312.35	933.00
312.61	937.00
312.88	942.00
313.14	893.00
313.41	871.00
313.67	869.00
313.94	916.00
314.20	905.00
314.47	916.00
314.73	906.00
315.00	881.00
315.26	897.00
315.53	954.00
315.79	934.00
316.06	923.00
316.32	897.00
316.59	930.00
316.85	928.00
317.12	930.00
317.39	869.00
317.65	902.00
317.92	896.00
318.18	921.00
318.45	901.00
318.71	953.00
318.98	955.00
319.24	936.00
319.51	921.00
319.77	910.00
320.04	922.00
320.30	920.00
320.57	883.00
320.83	887.00
321.10	884.00
321.36	909.00
321.63	879.00
321.89	889.00
322.16	956.00
322.42	941.00
322.69	880.00
322.95	872.00
323.22	920.00
323.48	951.00
323.75	885.00
324.01	906.00
324.28	926.00
324.54	927.00
324.80	901.00
325.07	921.00
325.33	932.00
325.60	898.00
325.86	869.00
326.13	901.00
326.39	902.00
326.66	888.00
326.92	860.00
327.19	894.00
327.45	950.00
327.72	957.00
327.98	886.00
328.25	876.00
328.51	919.00
328.78	925.00
329.04	899.00
329.31	909.00
329.57	910.00
329.84	910.00
330.10	885.00
330.37	897.00
330.63	942.00
330.89	964.00
331.16	893.00
331.42	903.00
331.69	955.00
331.95	917.00
332.22	901.00
332.48	918.00
332.75	929.00
333.01	902.00
333.28	892.00
333.54	907.00
333.81	924.00
334.07	943.00
334.34	898.00
334.60	912.00
334.86	959.00
335.13	956.00
335.39	916.00
335.66	907.00
335.92	942.00
336.19	935.00
336.45	855.00
336.72	886.00
336.98	912.00
337.24	915.00
337.51	858.00
337.77	897.00
338.04	916.00
338.30	911.00
338.57	871.00
338.83	899.00
339.10	927.00
339.36	940.00
339.63	892.00
339.89	872.00
340.15	896.00
340.42	938.00
340.68	910.00
340.95	909.00
341.21	909.00
341.48	920.00
341.74	869.00
342.00	883.00
342.27	919.00
342.53	916.00
342.80	880.00
343.06	884.00
343.33	912.00
343.59	931.00
343.85	896.00
344.12	919.00
344.38	965.00
344.65	946.00
344.91	897.00
345.18	901.00
345.44	914.00
345.70	905.00
345.97	868.00
346.23	886.00
346.50	931.00
346.76	929.00
347.03	916.00
347.29	910.00
347.55	924.00
347.82	919.00
348.08	858.00
348.35	888.00
348.61	973.00
348.87	943.00
349.14	873.00
349.40	863.00
349.67	928.00
349.93	914.00
350.20	891.00
350.46	920.00
350.72	935.00
350.99	917.00
351.25	891.00
351.52	890.00
351.78	913.00
352.04	933.00
352.31	907.00
352.57	902.00
352.84	886.00
353.10	917.00
353.36	912.00
353.63	898.00
353.89	910.00
354.16	925.00
354.42	916.00
354.68	920.00
354.95	966.00
355.21	938.00
355.48	884.00
355.74	927.00
356.00	951.00
356.27	963.00
356.53	890.00
356.80	902.00
357.06	927.00
357.32	938.00
357.59	921.00
357.85	927.00
358.11	964.00
358.38	955.00
358.64	905.00
358.91	898.00
359.17	921.00
359.43	946.00
359.70	916.00
359.96	908.00
360.22	946.00
360.49	917.00
360.75	898.00
361.02	890.00
361.28	912.00
361.54	925.00
361.81	860.00
362.07	891.00
362.33	924.00
362.60	914.00
362.86	889.00
363.13	921.00
363.39	931.00
363.65	943.00
363.92	863.00
364.18	869.00
364.44	910.00
364.71	928.00
364.97	877.00
365.24	894.00
365.50	939.00
365.76	947.00
366.03	910.00
366.29	927.00
366.55	949.00
366.82	919.00
367.08	863.00
367.34	907.00
367.61	933.00
367.87	936.00
368.13	908.00
368.40	909.00
368.66	971.00
368.93	953.00
369.19	880.00
369.45	877.00
369.72	922.00
369.98	909.00
370.24	887.00
370.51	901.00
370.77	932.00
371.03	931.00
371.30	897.00
371.56	917.00
371.82	953.00
372.09	926.00
372.35	917.00
372.61	912.00
372.88	906.00
373.14	933.00
373.40	893.00
373.67	887.00
373.93	900.00
374.19	944.00
374.46	899.00
374.72	880.00
374.98	924.00
375.25	913.00
375.51	915.00
375.77	931.00
376.04	929.00
376.30	942.00
376.56	897.00
376.83	904.00
377.09	941.00
377.35	931.00
377.62	899.00
377.88	894.00
378.14	903.00
378.41	932.00
378.67	902.00
378.93	888.00
379.20	928.00
379.46	905.00
379.72	885.00
379.99	900.00
380.25	908.00
380.51	902.00
380.77	880.00
381.04	907.00
381.30	939.00
381.56	942.00
381.83	918.00
382.09	898.00
382.35	893.00
382.62	920.00
382.88	902.00
383.14	898.00
383.41	901.00
383.67	903.00
383.93	888.00
384.20	895.00
384.46	926.00
384.72	946.00
384.98	891.00
385.25	915.00
385.51	927.00
385.77	914.00
386.04	871.00
386.30	877.00
386.56	938.00
386.82	980.00
387.09	889.00
387.35	915.00
387.61	972.00
387.88	937.00
388.14	908.00
388.40	901.00
388.67	885.00
388.93	913.00
389.19	898.00
389.45	916.00
389.72	920.00
389.98	919.00
390.24	891.00
390.51	873.00
390.77	919.00
391.03	937.00
391.29	890.00
391.56	898.00
391.82	928.00
392.08	947.00
392.35	894.00
392.61	893.00
392.87	910.00
393.13	932.00
393.40	890.00
393.66	888.00
393.92	924.00
394.18	930.00
394.45	878.00
394.71	894.00
394.97	900.00
395.24	886.00
395.50	879.00
395.76	920.00
396.02	923.00
396.29	910.00
396.55	869.00
396.81	845.00
397.07	908.00
397.34	895.00
397.60	870.00
397.86	881.00
398.12	900.00
398.39	944.00
398.65	866.00
398.91	877.00
399.17	909.00
399.44	870.00
399.70	848.00
399.96	868.00
400.22	900.00
400.49	936.00
400.75	909.00
401.01	886.00
401.27	901.00
401.54	935.00
401.80	903.00
402.06	889.00
402.32	931.00
402.59	913.00
402.85	884.00
403.11	899.00
403.37	892.00
403.64	946.00
403.90	891.00
404.16	886.00
404.42	905.00
404.69	888.00
404.95	894.00
405.21	876.00
405.47	882.00
405.74	929.00
406.00	883.00
406.26	898.00
406.52	907.00
406.79	924.00
407.05	875.00
407.31	895.00
407.57	886.00
407.83	904.00
408.10	862.00
408.36	883.00
408.62	903.00
408.88	917.00
409.15	889.00
409.41	839.00
409.67	869.00
409.93	919.00
410.20	895.00
410.46	900.00
410.72	891.00
410.98	914.00
411.24	894.00
411.51	893.00
411.77	888.00
412.03	898.00
412.29	913.00
412.55	930.00
412.82	894.00
413.08	923.00
413.34	920.00
413.60	902.00
413.87	916.00
414.13	931.00
414.39	869.00
414.65	893.00
414.91	920.00
415.18	905.00
415.44	865.00
415.70	871.00
415.96	904.00
416.22	894.00
416.49	871.00
416.75	870.00
417.01	912.00
417.27	911.00
417.53	895.00
417.80	901.00
418.06	938.00
418.32	923.00
418.58	881.00
418.84	902.00
419.11	927.00
419.37	917.00
419.63	882.00
419.89	896.00
420.15	918.00
420.42	907.00
420.68	876.00
420.94	903.00
421.20	909.00
421.46	917.00
421.72	908.00
421.99	895.00
422.25	903.00
422.51	898.00
422.77	897.00
423.03	920.00
423.30	907.00
423.56	919.00
423.82	919.00
424.08	920.00
424.34	919.00
424.60	924.00
424.87	884.00
425.13	877.00
425.39	903.00
425.65	888.00
425.91	889.00
426.18	907.00
426.44	899.00
426.70	885.00
426.96	856.00
427.22	860.00
427.48	894.00
427.75	904.00
428.01	856.00
428.27	872.00
428.53	917.00
428.79	893.00
429.05	858.00
429.32	867.00
429.58	933.00
429.84	888.00
430.10	894.00
430.36	900.00
430.62	925.00
430.88	927.00
431.15	900.00
431.41	906.00
431.67	925.00
431.93	918.00
432.19	879.00
432.45	899.00
432.72	906.00
432.98	903.00
433.24	916.00
433.50	995.00
433.76	916.00
434.02	897.00
434.28	868.00
434.55	889.00
434.81	916.00
435.07	917.00
435.33	856.00
435.59	878.00
435.85	893.00
436.11	897.00
436.38	844.00
436.64	859.00
436.90	905.00
437.16	909.00
437.42	880.00
437.68	886.00
437.94	924.00
438.21	923.00
438.47	917.00
438.73	903.00
438.99	888.00
439.25	915.00
439.51	867.00
439.77	897.00
440.03	900.00
440.30	914.00
440.56	903.00
440.82	926.00
441.08	922.00
441.34	915.00
441.60	863.00
441.86	899.00
442.12	932.00
442.39	906.00
442.65	877.00
442.91	883.00
443.17	893.00
443.43	899.00
443.69	884.00
443.95	875.00
444.21	898.00
444.47	935.00
444.74	878.00
445.00	881.00
445.26	894.00
445.52	921.00
445.78	876.00
446.04	884.00
446.30	950.00
446.56	939.00
446.82	867.00
447.09	895.00
447.35	942.00
447.61	921.00
447.87	894.00
448.13	884.00
448.39	953.00
448.65	941.00
448.91	870.00
449.17	897.00
449.43	896.00
449.70	911.00
449.96	875.00
450.22	872.00
450.48	915.00
450.74	953.00
451.00	889.00
451.26	877.00
451.52	895.00
451.78	899.00
452.04	873.00
452.31	914.00
452.57	928.00
452.83	890.00
453.09	872.00
453.35	901.00
453.61	905.00
453.87	907.00
454.13	917.00
454.39	923.00
454.65	966.00
454.91	936.00
455.17	865.00
455.44	887.00
455.70	910.00
455.96	921.00
456.22	869.00
456.48	880.00
456.74	913.00
457.00	877.00
457.26	846.00
457.52	875.00
457.78	890.00
458.04	916.00
458.30	861.00
458.56	881.00
458.82	895.00
459.09	882.00
459.35	837.00
459.61	870.00
459.87	906.00
460.13	925.00
460.39	886.00
460.65	865.00
460.91	938.00
461.17	891.00
461.43	868.00
461.69	879.00
461.95	916.00
462.21	887.00
462.47	886.00
462.73	914.00
462.99	946.00
463.26	908.00
463.52	854.00
463.78	851.00
464.04	883.00
464.30	902.00
464.56	866.00
464.82	890.00
465.08	939.00
465.34	940.00
465.60	891.00
465.86	904.00
466.12	903.00
466.38	876.00
466.64	865.00
466.90	889.00
467.16	899.00
467.42	915.00
467.68	877.00
467.94	899.00
468.20	962.00
468.46	919.00
468.72	874.00
468.98	905.00
469.25	932.00
469.51	882.00
469.77	892.00
470.03	891.00
470.29	900.00
470.55	912.00
470.81	888.00
471.07	901.00
471.33	915.00
471.59	925.00
471.85	884.00
472.11	908.00
472.37	920.00
472.63	903.00
472.89	903.00
473.15	905.00
473.41	918.00
473.67	913.00
473.93	856.00
474.19	876.00
474.45	877.00
474.71	902.00
474.97	868.00
475.23	877.00
475.49	895.00
475.75	883.00
476.01	888.00
476.27	915.00
476.53	939.00
476.79	914.00
477.05	897.00
477.31	871.00
477.57	915.00
477.83	922.00
478.09	855.00
478.35	899.00
478.61	939.00
478.87	897.00
479.13	861.00
479.39	912.00
479.65	928.00
479.91	933.00
480.17	911.00
480.43	918.00
480.69	903.00
480.95	909.00
481.21	868.00
481.47	888.00
481.73	911.00
481.99	902.00
482.25	864.00
482.51	858.00
482.77	923.00
483.03	905.00
483.29	899.00
483.55	904.00
483.81	925.00
484.07	920.00
484.33	873.00
484.59	897.00
484.85	923.00
485.11	914.00
485.37	894.00
485.63	893.00
485.89	884.00
486.15	883.00
486.41	878.00
486.67	885.00
486.93	900.00
487.19	890.00
487.45	870.00
487.71	868.00
487.97	927.00
488.23	936.00
488.49	874.00
488.75	880.00
489.01	921.00
489.27	945.00
489.53	880.00
489.79	873.00
490.05	886.00
490.31	927.00
490.57	913.00
490.83	934.00
491.08	897.00
491.34	889.00
491.60	881.00
491.86	910.00
492.12	956.00
492.38	937.00
492.64	884.00
492.90	875.00
493.16	913.00
493.42	876.00
493.68	853.00
493.94	903.00
494.20	882.00
494.46	902.00
494.72	872.00
494.98	868.00
495.24	880.00
495.50	895.00
495.76	897.00
496.02	918.00
496.28	916.00
496.54	912.00
496.80	887.00
497.05	851.00
497.31	914.00
497.57	923.00
497.83	887.00
498.09	913.00
498.35	928.00
498.61	907.00
498.87	885.00
499.13	878.00
499.39	890.00
499.65	886.00
499.91	894.00
500.17	866.00
500.43	965.00
500.69	976.00
500.95	883.00
501.20	905.00
501.46	918.00
501.72	921.00
501.98	925.00
502.24	924.00
502.50	938.00
502.76	915.00
503.02	896.00
503.28	899.00
503.54	949.00
503.80	928.00
504.06	901.00
504.32	929.00
504.58	941.00
504.83	903.00
505.09	869.00
505.35	909.00
505.61	901.00
505.87	900.00
506.13	887.00
506.39	889.00
506.65	933.00
506.91	943.00
507.17	910.00
507.43	892.00
507.68	894.00
507.94	916.00
508.20	881.00
508.46	852.00
508.72	921.00
508.98	930.00
509.24	874.00
509.50	902.00
509.76	891.00
510.02	902.00
510.28	859.00
510.53	878.00
510.79	919.00
511.05	910.00
511.31	891.00
511.57	902.00
511.83	919.00
512.09	925.00
512.35	875.00
512.61	891.00
512.87	925.00
513.12	926.00
513.38	867.00
513.64	895.00
513.90	913.00
514.16	951.00
514.42	900.00
514.68	898.00
514.94	916.00
515.20	929.00
515.45	879.00
515.71	886.00
515.97	886.00
516.23	901.00
516.49	879.00
516.75	884.00
517.01	888.00
517.27	886.00
517.53	861.00
517.78	887.00
518.04	919.00
518.30	900.00
518.56	868.00
518.82	908.00
519.08	941.00
519.34	886.00
519.60	876.00
519.85	885.00
520.11	892.00
520.37	897.00
520.63	884.00
520.89	913.00
521.15	915.00
521.41	906.00
521.66	888.00
521.92	881.00
522.18	924.00
522.44	934.00
522.70	901.00
522.96	869.00
523.22	921.00
523.48	910.00
523.73	873.00
523.99	884.00
524.25	957.00
524.51	924.00
524.77	867.00
525.03	862.00
525.29	902.00
525.54	921.00
525.80	868.00
526.06	874.00
526.32	880.00
526.58	878.00
526.84	879.00
527.09	884.00
527.35	891.00
527.61	882.00
527.87	864.00
528.13	889.00
528.39	904.00
528.65	888.00
528.90	845.00
529.16	877.00
529.42	885.00
529.68	895.00
529.94	855.00
530.20	870.00
530.45	881.00
530.71	914.00
530.97	874.00
531.23	886.00
531.49	924.00
531.75	908.00
532.00	888.00
532.26	882.00
532.52	918.00
532.78	899.00
533.04	869.00
533.30	884.00
533.55	896.00
533.81	884.00
534.07	857.00
534.33	884.00
534.59	914.00
534.85	913.00
535.10	879.00
535.36	875.00
535.62	909.00
535.88	907.00
536.14	877.00
536.39	877.00
536.65	927.00
536.91	925.00
537.17	873.00
537.43	883.00
537.69	939.00
537.94	920.00
538.20	872.00
538.46	894.00
538.72	908.00
538.98	910.00
539.23	870.00
539.49	860.00
539.75	927.00
540.01	918.00
540.27	892.00
540.52	929.00
540.78	919.00
541.04	918.00
541.30	875.00
541.56	862.00
541.81	926.00
542.07	994.00
542.33	900.00
542.59	884.00
542.85	887.00
543.10	911.00
543.36	880.00
543.62	915.00
543.88	918.00
544.14	903.00
544.39	881.00
544.65	909.00
544.91	935.00
545.17	909.00
545.43	861.00
545.68	889.00
545.94	915.00
546.20	936.00
546.46	876.00
546.71	873.00
546.97	906.00
547.23	909.00
547.49	885.00
547.75	880.00
548.00	921.00
548.26	936.00
548.52	878.00
548.78	861.00
549.03	886.00
549.29	901.00
549.55	857.00
549.81	892.00
550.07	916.00
550.32	906.00
550.58	860.00
550.84	896.00
551.10	897.00
551.35	898.00
551.61	881.00
551.87	890.00
552.13	913.00
552.39	899.00
552.64	845.00
552.90	866.00
553.16	906.00
553.42	923.00
553.67	874.00
553.93	878.00
554.19	930.00
554.45	937.00
554.70	896.00
554.96	872.00
555.22	907.00
555.48	913.00
555.73	873.00
555.99	883.00
556.25	917.00
556.51	914.00
556.76	886.00
557.02	898.00
557.28	909.00
557.54	890.00
557.79	861.00
558.05	895.00
558.31	891.00
558.57	915.00
558.82	865.00
559.08	864.00
559.34	875.00
559.60	908.00
559.85	873.00
560.11	887.00
560.37	881.00
560.63	882.00
560.88	866.00
561.14	866.00
561.40	918.00
561.66	879.00
561.91	882.00
562.17	894.00
562.43	909.00
562.68	931.00
562.94	899.00
563.20	899.00
563.46	908.00
563.71	910.00
563.97	850.00
564.23	879.00
564.49	926.00
564.74	910.00
565.00	865.00
565.26	874.00
565.51	892.00
565.77	880.00
566.03	860.00
566.29	878.00
566.54	868.00
566.80	887.00
567.06	860.00
567.31	891.00
567.57	919.00
567.83	901.00
568.09	877.00
568.34	885.00
568.60	885.00
568.86	924.00
569.11	909.00
569.37	875.00
569.63	889.00
569.89	913.00
570.14	850.00
570.40	882.00
570.66	896.00
570.91	889.00
571.17	864.00
571.43	888.00
571.69	946.00
571.94	942.00
572.20	887.00
572.46	902.00
572.71	907.00
572.97	881.00
573.23	869.00
573.48	878.00
573.74	899.00
574.00	911.00
574.26	871.00
574.51	882.00
574.77	943.00
575.03	913.00
575.28	869.00
575.54	862.00
575.80	884.00
576.05	913.00
576.31	863.00
576.57	880.00
576.82	911.00
577.08	908.00
577.34	883.00
577.59	884.00
577.85	918.00
578.11	894.00
578.37	868.00
578.62	878.00
578.88	918.00
579.14	923.00
579.39	893.00
579.65	898.00
579.91	897.00
580.16	893.00
580.42	879.00
580.68	872.00
580.93	915.00
581.19	899.00
581.45	856.00
581.70	885.00
581.96	904.00
582.22	917.00
582.47	892.00
582.73	887.00
582.99	931.00
583.24	905.00
583.50	851.00
583.76	869.00
584.01	905.00
584.27	923.00
584.53	886.00
584.78	898.00
585.04	884.00
585.30	903.00
585.55	902.00
585.81	903.00
586.07	948.00
586.32	938.00
586.58	886.00
586.83	889.00
587.09	914.00
587.35	898.00
587.60	862.00
587.86	868.00
588.12	890.00
588.37	934.00
588.63	881.00
588.89	890.00
589.14	895.00
589.40	917.00
589.66	861.00
589.91	880.00
590.17	901.00
590.43	856.00
590.68	849.00
590.94	877.00
591.19	912.00
591.45	884.00
591.71	850.00
591.96	872.00
592.22	901.00
592.48	912.00
592.73	860.00
592.99	885.00
593.25	908.00
593.50	912.00
593.76	878.00
594.01	877.00
594.27	919.00
594.53	903.00
594.78	865.00
595.04	877.00
595.30	887.00
595.55	903.00
595.81	860.00
596.06	895.00
596.32	938.00
596.58	922.00
596.83	873.00
597.09	915.00
597.35	921.00
597.60	895.00
597.86	869.00
598.11	886.00
598.37	929.00
598.63	923.00
598.88	870.00
599.14	865.00
599.39	919.00
599.65	904.00
599.91	842.00
600.16	865.00
600.42	894.00
600.67	916.00
600.93	871.00
601.19	902.00
601.44	949.00
601.70	917.00
601.95	862.00
602.21	891.00
602.47	902.00
602.72	910.00
602.98	870.00
603.23	877.00
603.49	915.00
603.75	919.00
604.00	861.00
604.26	874.00
604.51	887.00
604.77	929.00
605.03	873.00
605.28	871.00
605.54	919.00
605.79	925.00
606.05	864.00
606.31	862.00
606.56	895.00
606.82	903.00
607.07	885.00
607.33	905.00
607.59	926.00
607.84	890.00
608.10	859.00
608.35	877.00
608.61	922.00
608.86	924.00
609.12	886.00
609.38	910.00
609.63	932.00
609.89	890.00
610.14	849.00
610.40	873.00
610.65	893.00
610.91	877.00
611.17	880.00
611.42	902.00
611.68	947.00
611.93	940.00
612.19	896.00
612.44	916.00
612.70	909.00
612.96	868.00
613.21	866.00
613.47	872.00
613.72	886.00
613.98	916.00
614.23	882.00
614.49	891.00
614.75	911.00
615.00	908.00
615.26	888.00
615.51	873.00
615.77	922.00
616.02	945.00
616.28	891.00
616.53	889.00
616.79	904.00
617.05	889.00
617.30	867.00
617.56	909.00
617.81	942.00
618.07	920.00
618.32	873.00
618.58	911.00
618.83	925.00
619.09	937.00
619.34	884.00
619.60	881.00
619.86	937.00
620.11	944.00
620.37	913.00
620.62	904.00
620.88	924.00
621.13	943.00
621.39	907.00
621.64	912.00
621.90	954.00
622.15	929.00
622.41	914.00
622.66	916.00
622.92	961.00
623.18	969.00
623.43	912.00
623.69	918.00
623.94	936.00
624.20	950.00
624.45	943.00
624.71	967.00
624.96	956.00
625.22	984.00
625.47	958.00
625.73	975.00
625.98	984.00
626.24	973.00
626.49	964.00
626.75	1002.00
627.00	1042.00
627.26	1030.00
627.51	1002.00
627.77	1030.00
628.02	1079.00
628.28	1077.00
628.53	1037.00
628.79	1066.00
629.05	1084.00
629.30	1080.00
629.56	1078.00
629.81	1130.00
630.07	1145.00
630.32	1150.00
630.58	1155.00
630.83	1161.00
631.09	1205.00
631.34	1211.00
631.60	1152.00
631.85	1180.00
632.11	1239.00
632.36	1260.00
632.62	1263.00
632.87	1332.00
633.13	1379.00
633.38	1380.00
633.64	1380.00
633.89	1443.00
634.15	1550.00
634.40	1627.00
634.66	1613.00
634.91	1624.00
635.17	1658.00
635.42	1730.00
635.68	1707.00
635.93	1660.00
636.18	1689.00
636.44	1721.00
636.69	1692.00
636.95	1680.00
637.20	1729.00
637.46	1672.00
637.71	1620.00
637.97	1658.00
638.22	1666.00
638.48	1508.00
638.73	1456.00
638.99	1435.00
639.24	1510.00
639.50	1462.00
639.75	1331.00
640.01	1317.00
640.26	1326.00
640.52	1288.00
640.77	1195.00
641.03	1140.00
641.28	1136.00
641.54	1157.00
641.79	1109.00
642.04	1136.00
642.30	1117.00
642.55	1092.00
642.81	1048.00
643.06	1050.00
643.32	1088.00
643.57	1064.00
643.83	996.00
644.08	973.00
644.34	977.00
644.59	1023.00
644.85	964.00
645.10	958.00
645.35	972.00
645.61	969.00
645.86	932.00
646.12	920.00
646.37	974.00
646.63	985.00
646.88	897.00
647.14	926.00
647.39	958.00
647.65	984.00
647.90	907.00
648.15	951.00
648.41	951.00
648.66	943.00
648.92	898.00
649.17	908.00
649.43	921.00
649.68	940.00
649.94	906.00
650.19	897.00
650.44	917.00
650.70	906.00
650.95	853.00
651.21	890.00
651.46	934.00
651.72	939.00
651.97	908.00
652.23	893.00
652.48	911.00
652.73	913.00
652.99	901.00
653.24	898.00
653.50	909.00
653.75	903.00
654.01	890.00
654.26	916.00
654.51	899.00
654.77	925.00
655.02	888.00
655.28	878.00
655.53	879.00
655.79	902.00
656.04	886.00
656.29	888.00
656.55	900.00
656.80	926.00
657.06	865.00
657.31	871.00
657.56	881.00
657.82	886.00
658.07	873.00
658.33	880.00
658.58	897.00
658.84	921.00
659.09	877.00
659.34	899.00
659.60	906.00
659.85	889.00
660.11	844.00
660.36	876.00
660.61	890.00
660.87	883.00
661.12	855.00
661.38	880.00
661.63	896.00
661.88	888.00
662.14	897.00
662.39	888.00
662.65	917.00
662.90	936.00
663.15	864.00
663.41	892.00
663.66	925.00
663.92	945.00
664.17	873.00
664.42	881.00
664.68	923.00
664.93	901.00
665.19	867.00
665.44	874.00
665.69	885.00
665.95	903.00
666.20	858.00
666.45	892.00
666.71	916.00
666.96	916.00
667.22	849.00
667.47	869.00
667.72	891.00
667.98	897.00
668.23	856.00
668.49	898.00
668.74	928.00
668.99	908.00
669.25	857.00
669.50	871.00
669.75	906.00
670.01	897.00
670.26	854.00
670.52	873.00
670.77	904.00
671.02	885.00
671.28	846.00
671.53	888.00
671.78	895.00
672.04	916.00
672.29	885.00
672.54	876.00
672.80	901.00
673.05	894.00
673.31	860.00
673.56	921.00
673.81	933.00
674.07	911.00
674.32	881.00
674.57	892.00
674.83	888.00
675.08	907.00
675.33	873.00
675.59	875.00
675.84	912.00
676.09	907.00
676.35	890.00
676.60	890.00
676.86	908.00
677.11	944.00
677.36	886.00
677.62	889.00
677.87	921.00
678.12	964.00
678.38	875.00
678.63	900.00
678.88	920.00
679.14	924.00
679.39	855.00
679.64	889.00
679.90	882.00
680.15	897.00
680.40	898.00
680.66	858.00
680.91	902.00
681.16	913.00
681.42	869.00
681.67	870.00
681.92	895.00
682.18	939.00
682.43	870.00
682.68	871.00
682.94	896.00
683.19	879.00
683.44	863.00
683.70	892.00
683.95	921.00
684.20	899.00
684.46	870.00
684.71	894.00
684.96	886.00
685.22	901.00
685.47	879.00
685.72	903.00
685.98	917.00
686.23	874.00
686.48	866.00
686.74	917.00
686.99	932.00
687.24	904.00
687.50	849.00
687.75	859.00
688.00	888.00
688.25	907.00
688.51	902.00
688.76	925.00
689.01	889.00
689.27	901.00
689.52	843.00
689.77	866.00
690.03	876.00
690.28	883.00
690.53	885.00
690.79	886.00
691.04	902.00
691.29	907.00
691.54	840.00
691.80	885.00
692.05	893.00
692.30	886.00
692.56	866.00
692.81	914.00
693.06	882.00
693.32	885.00
693.57	870.00
693.82	899.00
694.07	905.00
694.33	919.00
694.58	866.00
694.83	886.00
695.09	873.00
695.34	906.00
695.59	868.00
695.84	894.00
696.10	910.00
696.35	909.00
696.60	858.00
696.86	877.00
697.11	902.00
697.36	896.00
697.61	852.00
697.87	870.00
698.12	873.00
698.37	881.00
698.63	895.00
698.88	875.00
699.13	901.00
699.38	908.00
699.64	863.00
699.89	888.00
700.14	878.00
700.39	875.00
700.65	880.00
700.90	915.00
701.15	902.00
701.40	916.00
701.66	875.00
701.91	897.00
702.16	876.00
702.42	885.00
702.67	853.00
702.92	856.00
703.17	887.00
703.43	895.00
703.68	878.00
703.93	904.00
704.18	933.00
704.44	891.00
704.69	872.00
704.94	911.00
705.19	896.00
705.45	917.00
705.70	882.00
705.95	884.00
706.20	880.00
706.46	891.00
706.71	866.00
706.96	876.00
707.21	891.00
707.47	901.00
707.72	869.00
707.97	885.00
708.22	909.00
708.48	928.00
708.73	857.00
708.98	846.00
709.23	878.00
709.49	886.00
709.74	874.00
709.99	867.00
710.24	899.00
710.50	903.00
710.75	890.00
711.00	911.00
711.25	918.00
711.50	895.00
711.76	865.00
712.01	880.00
712.26	873.00
712.51	907.00
712.77	876.00
713.02	869.00
713.27	872.00
713.52	893.00
713.78	878.00
714.03	894.00
714.28	889.00
714.53	897.00
714.78	866.00
715.04	911.00
715.29	901.00
715.54	907.00
715.79	859.00
716.05	901.00
716.30	912.00
716.55	914.00
716.80	884.00
717.05	901.00
717.31	907.00
717.56	911.00
717.81	883.00
718.06	872.00
718.31	874.00
718.57	891.00
718.82	872.00
719.07	920.00
719.32	887.00
719.57	898.00
719.83	872.00
720.08	896.00
720.33	887.00
720.58	891.00
720.83	844.00
721.09	899.00
721.34	888.00
721.59	917.00
721.84	877.00
722.09	888.00
722.35	908.00
722.60	882.00
722.85	865.00
723.10	875.00
723.35	874.00
723.61	901.00
723.86	886.00
724.11	894.00
724.36	881.00
724.61	881.00
724.87	860.00
725.12	858.00
725.37	880.00
725.62	889.00
725.87	877.00
726.12	875.00
726.38	882.00
726.63	905.00
726.88	869.00
727.13	898.00
727.38	894.00
727.64	910.00
727.89	855.00
728.14	870.00
728.39	877.00
728.64	903.00
728.89	885.00
729.15	897.00
729.40	892.00
729.65	914.00
729.90	879.00
730.15	892.00
730.40	905.00
730.66	894.00
730.91	861.00
731.16	879.00
731.41	892.00
731.66	907.00
731.91	862.00
732.17	906.00
732.42	917.00
732.67	908.00
732.92	869.00
733.17	890.00
733.42	898.00
733.68	916.00
733.93	881.00
734.18	886.00
734.43	864.00
734.68	873.00
734.93	874.00
735.18	896.00
735.44	886.00
735.69	898.00
735.94	852.00
736.19	874.00
736.44	865.00
736.69	916.00
736.95	865.00
737.20	887.00
737.45	897.00
737.70	906.00
737.95	899.00
738.20	908.00
738.45	894.00
738.70	884.00
738.96	878.00
739.21	909.00
739.46	897.00
739.71	905.00
739.96	865.00
740.21	899.00
740.46	958.00
740.72	937.00
740.97	879.00
741.22	900.00
741.47	874.00
741.72	915.00
741.97	862.00
742.22	881.00
742.47	902.00
742.73	901.00
742.98	862.00
743.23	868.00
743.48	861.00
743.73	871.00
743.98	871.00
744.23	882.00
744.48	904.00
744.74	884.00
744.99	860.00
745.24	898.00
745.49	902.00
745.74	923.00
745.99	877.00
746.24	894.00
746.49	873.00
746.74	865.00
747.00	871.00
747.25	875.00
747.50	851.00
747.75	869.00
748.00	834.00
748.25	882.00
748.50	876.00
748.75	897.00
749.00	913.00
749.26	933.00
749.51	897.00
749.76	912.00
750.01	874.00
750.26	894.00
750.51	926.00
750.76	906.00
751.01	865.00
751.26	886.00
751.51	900.00
751.77	905.00
752.02	880.00
752.27	874.00
752.52	878.00
752.77	909.00
753.02	876.00
753.27	893.00
753.52	886.00
753.77	878.00
754.02	862.00
754.27	865.00
754.52	856.00
754.78	909.00
755.03	878.00
755.28	890.00
755.53	897.00
755.78	884.00
756.03	840.00
756.28	898.00
756.53	889.00
756.78	891.00
757.03	861.00
757.28	896.00
757.53	905.00
757.79	872.00
758.04	861.00
758.29	923.00
758.54	919.00
758.79	893.00
759.04	855.00
759.29	869.00
759.54	870.00
759.79	873.00
760.04	877.00
760.29	884.00
760.54	888.00
760.79	903.00
761.04	866.00
761.29	892.00
761.55	875.00
761.80	866.00
762.05	847.00
762.30	887.00
762.55	882.00
762.80	911.00
763.05	897.00
763.30	912.00
763.55	925.00
763.80	908.00
764.05	853.00
764.30	882.00
764.55	919.00
764.80	901.00
765.05	865.00
765.30	904.00
765.55	907.00
765.80	889.00
766.05	854.00
766.30	890.00
766.56	877.00
766.81	887.00
767.06	882.00
767.31	885.00
767.56	872.00
767.81	901.00
768.06	885.00
768.31	900.00
768.56	893.00
768.81	945.00
769.06	878.00
769.31	893.00
769.56	890.00
769.81	914.00
770.06	866.00
770.31	863.00
770.56	903.00
770.81	881.00
771.06	852.00
771.31	894.00
771.56	891.00
771.81	909.00
772.06	866.00
772.31	910.00
772.56	918.00
772.81	904.00
773.06	875.00
773.31	908.00
773.56	898.00
773.81	853.00
774.06	844.00
774.31	880.00
774.56	894.00
774.81	908.00
775.06	879.00
775.31	914.00
775.56	905.00
775.81	888.00
776.06	864.00
776.31	882.00
776.56	884.00
776.82	876.00
777.07	850.00
777.32	880.00
777.57	883.00
777.82	934.00
778.07	875.00
778.32	875.00
778.57	880.00
778.82	910.00
779.07	891.00
779.32	898.00
779.57	863.00
779.82	883.00
780.07	874.00
780.32	897.00
780.56	881.00
780.81	914.00
781.06	870.00
781.31	891.00
781.56	915.00
781.81	902.00
782.06	863.00
782.31	911.00
782.56	903.00
782.81	902.00
783.06	862.00
783.31	865.00
783.56	874.00
783.81	901.00
784.06	883.00
784.31	886.00
784.56	857.00
784.81	932.00
785.06	900.00
785.31	889.00
785.56	858.00
785.81	858.00
786.06	851.00
786.31	878.00
786.56	873.00
786.81	884.00
787.06	890.00
787.31	876.00
787.56	866.00
787.81	870.00
788.06	868.00
788.31	898.00
788.56	867.00
788.81	916.00
789.06	889.00
789.31	893.00
789.56	893.00
789.81	886.00
790.06	847.00
790.31	918.00
790.56	889.00
790.80	877.00
791.05	854.00
791.30	848.00
791.55	861.00
791.80	881.00
792.05	873.00
792.30	874.00
792.55	878.00
792.80	899.00
793.05	853.00
793.30	868.00
793.55	898.00
793.80	912.00
794.05	857.00
794.30	898.00
794.55	903.00
794.80	920.00
795.05	867.00
795.30	865.00
795.54	874.00
795.79	899.00
796.04	857.00
796.29	896.00
796.54	890.00
796.79	906.00
797.04	878.00
797.29	899.00
797.54	903.00
797.79	913.00
798.04	872.00
798.29	869.00
798.54	861.00
798.79	857.00
799.04	844.00
799.29	879.00
799.53	888.00
799.78	878.00
800.03	872.00
800.28	858.00
800.53	878.00
800.78	925.00
801.03	885.00
801.28	888.00
801.53	885.00
801.78	915.00
802.03	872.00
802.28	889.00
802.52	905.00
802.77	905.00
803.02	887.00
803.27	910.00
803.52	868.00
803.77	912.00
804.02	894.00
804.27	908.00
804.52	916.00
804.77	917.00
805.02	886.00
805.27	886.00
805.51	873.00
805.76	906.00
806.01	875.00
806.26	879.00
806.51	882.00
806.76	913.00
807.01	871.00
807.26	862.00
807.51	892.00
807.76	867.00
808.00	853.00
808.25	888.00
808.50	900.00
808.75	880.00
809.00	854.00
809.25	882.00
809.50	888.00
809.75	915.00
810.00	887.00
810.24	872.00
810.49	842.00
810.74	863.00
810.99	868.00
811.24	881.00
811.49	906.00
811.74	917.00
811.99	851.00
812.24	876.00
812.48	861.00
812.73	863.00
812.98	838.00
813.23	861.00
813.48	883.00
813.73	880.00
813.98	845.00
814.23	884.00
814.47	871.00
814.72	877.00
814.97	847.00
815.22	905.00
815.47	889.00
815.72	894.00
815.97	842.00
816.22	865.00
816.46	884.00
816.71	905.00
816.96	884.00
817.21	897.00
817.46	868.00
817.71	903.00
817.96	867.00
818.20	872.00
818.45	857.00
818.70	882.00
818.95	858.00
819.20	869.00
819.45	885.00
819.70	893.00
819.94	858.00
820.19	885.00
820.44	892.00
820.69	914.00
820.94	869.00
821.19	904.00
821.44	945.00
821.68	952.00
821.93	890.00
822.18	908.00
822.43	912.00
822.68	909.00
822.93	856.00
823.17	881.00
823.42	890.00
823.67	874.00
823.92	851.00
824.17	891.00
824.42	881.00
824.67	911.00
824.91	877.00
825.16	876.00
825.41	894.00
825.66	897.00
825.91	850.00
826.16	867.00
826.40	876.00
826.65	891.00
826.90	857.00
827.15	881.00
827.40	897.00
827.65	921.00
827.89	845.00
828.14	886.00
828.39	888.00
828.64	895.00
828.89	854.00
829.13	877.00
829.38	859.00
829.63	896.00
829.88	869.00
830.13	869.00
830.38	866.00
830.62	880.00
830.87	870.00
831.12	886.00
831.37	906.00
831.62	925.00
831.86	870.00
832.11	868.00
832.36	859.00
832.61	897.00
832.86	880.00
833.10	884.00
833.35	888.00
833.60	904.00
833.85	866.00
834.10	890.00
834.35	924.00
834.59	923.00
834.84	864.00
835.09	897.00
835.34	854.00
835.59	874.00
835.83	885.00
836.08	905.00
836.33	917.00
836.58	907.00
836.83	874.00
837.07	877.00
837.32	892.00
837.57	904.00
837.82	868.00
838.06	887.00
838.31	915.00
838.56	932.00
838.81	863.00
839.06	896.00
839.30	886.00
839.55	912.00
839.80	881.00
840.05	904.00
840.30	906.00
840.54	926.00
840.79	873.00
841.04	888.00
841.29	908.00
841.53	908.00
841.78	866.00
842.03	853.00
842.28	876.00
842.53	880.00
842.77	865.00
843.02	897.00
843.27	888.00
843.52	899.00
843.76	871.00
844.01	901.00
844.26	882.00
844.51	891.00
844.75	849.00
845.00	862.00
845.25	889.00
845.50	912.00
845.75	872.00
845.99	892.00
846.24	902.00
846.49	897.00
846.74	858.00
846.98	853.00
847.23	869.00
847.48	897.00
847.73	871.00
847.97	877.00
848.22	902.00
848.47	907.00
848.72	877.00
848.96	868.00
849.21	899.00
849.46	878.00
849.71	867.00
849.95	884.00
850.20	878.00
850.45	883.00
850.70	829.00
850.94	870.00
851.19	873.00
851.44	874.00
851.69	829.00
851.93	876.00
852.18	899.00
852.43	897.00
852.68	880.00
852.92	920.00
853.17	927.00
853.42	921.00
853.66	892.00
853.91	906.00
854.16	881.00
854.41	916.00
854.65	863.00
854.90	875.00
855.15	883.00
855.40	889.00
855.64	884.00
855.89	881.00
856.14	876.00
856.39	876.00
856.63	851.00
856.88	866.00
857.13	890.00
857.37	879.00
857.62	833.00
857.87	860.00
858.12	878.00
858.36	900.00
858.61	832.00
858.86	869.00
859.10	891.00
859.35	890.00
859.60	851.00
859.85	847.00
860.09	853.00
860.34	898.00
860.59	889.00
860.83	873.00
861.08	870.00
861.33	918.00
861.58	872.00
861.82	862.00
862.07	883.00
862.32	879.00
862.56	864.00
862.81	874.00
863.06	897.00
863.30	895.00
863.55	891.00
863.80	901.00
864.05	906.00
864.29	886.00
864.54	879.00
864.79	891.00
865.03	877.00
865.28	913.00
865.53	886.00
865.77	865.00
866.02	881.00
866.27	898.00
866.51	881.00
866.76	860.00
867.01	841.00
867.26	891.00
867.50	876.00
867.75	846.00
868.00	899.00
868.24	901.00
868.49	849.00
868.74	890.00
868.98	874.00
869.23	888.00
869.48	872.00
869.72	875.00
869.97	896.00
870.22	919.00
870.46	886.00
870.71	891.00
870.96	887.00
871.20	898.00
871.45	844.00
871.70	885.00
871.94	909.00
872.19	922.00
872.44	904.00
872.68	886.00
872.93	872.00
873.18	896.00
873.42	874.00
873.67	876.00
873.92	892.00
874.16	880.00
874.41	873.00
874.66	888.00
874.90	908.00
875.15	910.00
875.40	892.00
875.64	896.00
875.89	889.00
876.14	908.00
876.38	876.00
876.63	874.00
876.88	886.00
877.12	887.00
877.37	864.00
877.62	892.00
877.86	890.00
878.11	899.00
878.36	857.00
878.60	882.00
878.85	880.00
879.09	878.00
879.34	861.00
879.59	908.00
879.83	925.00
880.08	924.00
880.33	893.00
880.57	900.00
880.82	918.00
881.07	908.00
881.31	883.00
881.56	876.00
881.80	882.00
882.05	885.00
882.30	852.00
882.54	866.00
882.79	903.00
883.04	949.00
883.28	899.00
883.53	880.00
883.77	889.00
884.02	901.00
884.27	858.00
884.51	857.00
884.76	863.00
885.01	899.00
885.25	861.00
885.50	889.00
885.74	875.00
885.99	913.00
886.24	863.00
886.48	871.00
886.73	886.00
886.98	924.00
887.22	879.00
887.47	897.00
887.71	916.00
887.96	906.00
888.21	882.00
888.45	870.00
888.70	872.00
888.94	915.00
889.19	846.00
889.44	870.00
889.68	890.00
889.93	924.00
890.17	877.00
890.42	863.00
890.67	902.00
890.91	972.00
891.16	873.00
891.40	861.00
891.65	877.00
891.90	903.00
892.14	834.00
892.39	872.00
892.63	892.00
892.88	918.00
893.13	878.00
893.37	876.00
893.62	883.00
893.86	921.00
894.11	879.00
894.36	899.00
894.60	877.00
894.85	894.00
895.09	890.00
895.34	907.00
895.59	882.00
895.83	875.00
896.08	854.00
896.32	859.00
896.57	884.00
896.81	899.00
897.06	864.00
897.31	872.00
897.55	901.00
897.80	897.00
898.04	859.00
898.29	861.00
898.53	889.00
898.78	908.00
899.03	888.00
899.27	877.00
899.52	908.00
899.76	919.00
900.01	861.00
900.25	892.00
900.50	903.00
900.75	900.00
900.99	866.00
901.24	941.00
901.48	908.00
901.73	893.00
901.97	862.00
902.22	898.00
902.47	903.00
902.71	892.00
902.96	862.00
903.20	878.00
903.45	896.00
903.69	900.00
903.94	885.00
904.18	865.00
904.43	888.00
904.68	900.00
904.92	841.00
905.17	855.00
905.41	892.00
905.66	918.00
905.90	905.00
906.15	881.00
906.39	885.00
906.64	893.00
906.88	857.00
907.13	865.00
907.38	899.00
907.62	908.00
907.87	864.00
908.11	891.00
908.36	854.00
908.60	904.00
908.85	828.00
909.09	870.00
909.34	885.00
909.58	883.00
909.83	864.00
910.07	860.00
910.32	905.00
910.56	932.00
910.81	860.00
911.06	905.00
911.30	903.00
911.55	880.00
911.79	860.00
912.04	869.00
912.28	875.00
912.53	897.00
912.77	870.00
913.02	887.00
913.26	876.00
913.51	880.00
913.75	871.00
914.00	874.00
914.24	877.00
914.49	891.00
914.73	849.00
914.98	897.00
915.22	928.00
915.47	892.00
915.71	860.00
915.96	896.00
916.20	889.00
916.45	862.00
916.69	838.00
916.94	878.00
917.18	898.00
917.43	909.00
917.67	856.00
917.92	857.00
918.16	888.00
918.41	912.00
918.65	866.00
918.90	847.00
919.14	853.00
919.39	882.00
919.63	872.00
919.88	878.00
920.12	901.00
920.37	899.00
920.61	856.00
920.86	872.00
921.10	893.00
921.35	880.00
921.59	857.00
921.84	893.00
922.08	909.00
922.33	936.00
922.57	853.00
922.82	847.00
923.06	875.00
923.31	882.00
923.55	834.00
923.80	867.00
924.04	883.00
924.29	904.00
924.53	862.00
924.78	866.00
925.02	867.00
925.27	884.00
925.51	859.00
925.76	881.00
926.00	889.00
926.25	898.00
926.49	860.00
926.73	893.00
926.98	899.00
927.22	916.00
927.47	899.00
927.71	875.00
927.96	888.00
928.20	913.00
928.45	884.00
928.69	925.00
928.94	883.00
929.18	879.00
929.43	901.00
929.67	894.00
929.91	895.00
930.16	896.00
930.40	844.00
930.65	828.00
930.89	876.00
931.14	904.00
931.38	876.00
931.63	893.00
931.87	886.00
932.12	892.00
932.36	859.00
932.60	870.00
932.85	901.00
933.09	885.00
933.34	849.00
933.58	902.00
933.83	880.00
934.07	912.00
934.32	882.00
934.56	905.00
934.80	937.00
935.05	923.00
935.29	882.00
935.54	897.00
935.78	885.00
936.03	893.00
936.27	834.00
936.52	854.00
936.76	883.00
937.00	897.00
937.25	877.00
937.49	891.00
937.74	917.00
937.98	915.00
938.23	838.00
938.47	861.00
938.71	881.00
938.96	886.00
939.20	860.00
939.45	870.00
939.69	885.00
939.94	894.00
940.18	842.00
940.42	871.00
940.67	890.00
940.91	874.00
941.16	854.00
941.40	844.00
941.64	879.00
941.89	900.00
942.13	854.00
942.38	896.00
942.62	964.00
942.87	917.00
943.11	875.00
943.35	852.00
943.60	885.00
943.84	937.00
944.09	890.00
944.33	899.00
944.57	908.00
944.82	889.00
945.06	857.00
945.31	886.00
945.55	874.00
945.79	901.00
946.04	871.00
946.28	860.00
946.53	884.00
946.77	885.00
947.01	858.00
947.26	919.00
947.50	895.00
947.75	899.00
947.99	875.00
948.23	883.00
948.48	899.00
948.72	875.00
948.97	869.00
949.21	873.00
949.45	886.00
949.70	913.00
949.94	871.00
950.18	876.00
950.43	888.00
950.67	901.00
950.92	876.00
951.16	862.00
951.40	870.00
951.65	894.00
951.89	873.00
952.13	892.00
952.38	893.00
952.62	901.00
952.87	864.00
953.11	899.00
953.35	917.00
953.60	908.00
953.84	824.00
954.08	848.00
954.33	880.00
954.57	898.00
954.82	892.00
955.06	872.00
955.30	882.00
955.55	880.00
955.79	878.00
956.03	894.00
956.28	869.00
956.52	887.00
956.76	870.00
957.01	886.00
957.25	880.00
957.50	892.00
957.74	867.00
957.98	878.00
958.23	906.00
958.47	884.00
958.71	882.00
958.96	899.00
959.20	912.00
959.44	893.00
959.69	881.00
959.93	901.00
960.17	888.00
960.42	901.00
960.66	890.00
960.90	886.00
961.15	877.00
961.39	887.00
961.64	860.00
961.88	851.00
962.12	892.00
962.37	909.00
962.61	869.00
962.85	862.00
963.10	888.00
963.34	881.00
963.58	868.00
963.83	885.00
964.07	887.00
964.31	896.00
964.56	880.00
964.80	877.00
965.04	900.00
965.29	897.00
965.53	854.00
965.77	846.00
966.02	855.00
966.26	874.00
966.50	848.00
966.74	861.00
966.99	908.00
967.23	917.00
967.47	883.00
967.72	865.00
967.96	902.00
968.20	897.00
968.45	855.00
968.69	873.00
968.93	873.00
969.18	884.00
969.42	898.00
969.66	875.00
969.91	873.00
970.15	903.00
970.39	859.00
970.64	881.00
970.88	896.00
971.12	901.00
971.36	867.00
971.61	859.00
971.85	868.00
972.09	876.00
972.34	870.00
972.58	876.00
972.82	907.00
973.07	914.00
973.31	841.00
973.55	858.00
973.79	892.00
974.04	929.00
974.28	896.00
974.52	884.00
974.77	867.00
975.01	917.00
975.25	881.00
975.50	905.00
975.74	901.00
975.98	901.00
976.22	893.00
976.47	872.00
976.71	894.00
976.95	901.00
977.20	888.00
977.44	878.00
977.68	889.00
977.92	908.00
978.17	871.00
978.41	867.00
978.65	898.00
978.90	877.00
979.14	870.00
979.38	875.00
979.62	882.00
979.87	870.00
980.11	841.00
980.35	882.00
980.59	897.00
980.84	891.00
981.08	860.00
981.32	859.00
981.57	890.00
981.81	877.00
982.05	851.00
982.29	868.00
982.54	881.00
982.78	908.00
983.02	877.00
983.26	885.00
983.51	925.00
983.75	908.00
983.99	860.00
984.23	889.00
984.48	900.00
984.72	891.00
984.96	851.00
985.20	868.00
985.45	922.00
985.69	909.00
985.93	870.00
986.17	886.00
986.42	874.00
986.66	886.00
986.90	847.00
987.14	842.00
987.39	875.00
987.63	869.00
987.87	843.00
988.11	859.00
988.36	893.00
988.60	899.00
988.84	889.00
989.08	867.00
989.33	904.00
989.57	890.00
989.81	854.00
990.05	865.00
990.30	868.00
990.54	848.00
990.78	852.00
991.02	864.00
991.27	904.00
991.51	902.00
991.75	869.00
991.99	887.00
992.23	879.00
992.48	872.00
992.72	851.00
992.96	853.00
993.20	865.00
993.45	884.00
993.69	899.00
993.93	848.00
994.17	897.00
994.41	901.00
994.66	864.00
994.90	889.00
995.14	913.00
995.38	894.00
995.63	867.00
995.87	865.00
996.11	913.00
996.35	901.00
996.59	833.00
996.84	855.00
997.08	888.00
997.32	885.00
997.56	880.00
997.80	848.00
998.05	860.00
998.29	867.00
998.53	853.00
998.77	885.00
999.01	896.00
999.26	899.00
999.50	875.00
999.74	859.00
999.98	888.00
1000.22	900.00
1000.47	865.00
1000.71	871.00
1000.95	907.00
1001.19	891.00
1001.43	863.00
1001.68	886.00
1001.92	881.00
1002.16	877.00
1002.40	845.00
1002.64	870.00
1002.89	872.00
1003.13	871.00
1003.37	872.00
1003.61	858.00
1003.85	889.00
1004.10	884.00
1004.34	862.00
1004.58	865.00
1004.82	908.00
1005.06	893.00
1005.30	849.00
1005.55	861.00
1005.79	896.00
1006.03	876.00
1006.27	873.00
1006.51	874.00
1006.76	891.00
1007.00	906.00
1007.24	873.00
1007.48	878.00
1007.72	913.00
1007.96	892.00
1008.21	866.00
1008.45	888.00
1008.69	885.00
1008.93	894.00
1009.17	855.00
1009.41	898.00
1009.66	910.00
1009.90	891.00
1010.14	851.00
1010.38	886.00
1010.62	908.00
1010.86	922.00
1011.10	865.00
1011.35	844.00
1011.59	874.00
1011.83	859.00
1012.07	839.00
1012.31	859.00
1012.55	868.00
1012.80	886.00
1013.04	876.00
1013.28	887.00
1013.52	881.00
1013.76	905.00
1014.00	877.00
1014.24	878.00
1014.49	899.00
1014.73	924.00
1014.97	904.00
1015.21	886.00
1015.45	913.00
1015.69	895.00
1015.93	878.00
1016.18	882.00
1016.42	926.00
1016.66	909.00
1016.90	858.00
1017.14	852.00
1017.38	877.00
1017.62	884.00
1017.87	869.00
1018.11	879.00
1018.35	894.00
1018.59	899.00
1018.83	837.00
1019.07	867.00
1019.31	889.00
1019.55	901.00
1019.80	870.00
1020.04	884.00
1020.28	892.00
1020.52	893.00
1020.76	848.00
1021.00	852.00
1021.24	877.00
1021.48	865.00
1021.73	861.00
1021.97	886.00
1022.21	901.00
1022.45	906.00
1022.69	874.00
1022.93	861.00
1023.17	889.00
1023.41	927.00
1023.65	882.00
1023.90	919.00
1024.14	926.00
1024.38	883.00
1024.62	846.00
1024.86	889.00
1025.10	900.00
1025.34	878.00
1025.58	841.00
1025.82	857.00
1026.07	896.00
1026.31	901.00
1026.55	856.00
1026.79	874.00
1027.03	891.00
1027.27	890.00
1027.51	828.00
1027.75	833.00
1027.99	849.00
1028.23	911.00
1028.47	884.00
1028.72	868.00
1028.96	913.00
1029.20	900.00
1029.44	881.00
1029.68	874.00
1029.92	883.00
1030.16	900.00
1030.40	849.00
1030.64	861.00
1030.88	866.00
1031.12	866.00
1031.37	836.00
1031.61	889.00
1031.85	909.00
1032.09	904.00
1032.33	873.00
1032.57	922.00
1032.81	892.00
1033.05	915.00
1033.29	896.00
1033.53	856.00
1033.77	935.00
1034.01	930.00
1034.25	880.00
1034.50	886.00
1034.74	884.00
1034.98	900.00
1035.22	885.00
1035.46	884.00
1035.70	924.00
1035.94	932.00
1036.18	894.00
1036.42	865.00
1036.66	877.00
1036.90	876.00
1037.14	852.00
1037.38	867.00
1037.62	894.00
1037.86	885.00
1038.10	876.00
1038.35	881.00
1038.59	905.00
1038.83	921.00
1039.07	893.00
1039.31	905.00
1039.55	881.00
1039.79	890.00
1040.03	843.00
1040.27	848.00
1040.51	898.00
1040.75	918.00
1040.99	877.00
1041.23	884.00
1041.47	888.00
1041.71	918.00
1041.95	877.00
1042.19	867.00
1042.43	899.00
1042.67	905.00
1042.91	876.00
1043.15	868.00
1043.39	918.00
1043.64	892.00
1043.88	875.00
1044.12	886.00
1044.36	927.00
1044.60	921.00
1044.84	888.00
1045.08	892.00
1045.32	900.00
1045.56	892.00
1045.80	886.00
1046.04	882.00
1046.28	910.00
1046.52	908.00
1046.76	848.00
1047.00	858.00
1047.24	896.00
1047.48	888.00
1047.72	885.00
1047.96	875.00
1048.20	896.00
1048.44	884.00
1048.68	852.00
1048.92	876.00
1049.16	902.00
1049.40	891.00
1049.64	879.00
1049.88	894.00
1050.12	905.00
1050.36	914.00
1050.60	878.00
1050.84	878.00
1051.08	860.00
1051.32	856.00
1051.56	875.00
1051.80	872.00
1052.04	886.00
1052.28	922.00
1052.52	869.00
1052.76	852.00
1053.00	883.00
1053.24	893.00
1053.48	855.00
1053.72	879.00
1053.96	892.00
1054.20	890.00
1054.44	876.00
1054.68	906.00
1054.92	905.00
1055.16	865.00
1055.40	854.00
1055.64	893.00
1055.88	909.00
1056.12	927.00
1056.36	860.00
1056.60	861.00
1056.84	899.00
1057.08	893.00
1057.32	885.00
1057.56	877.00
1057.80	886.00
1058.04	914.00
1058.28	858.00
1058.52	868.00
1058.76	922.00
1059.00	916.00
1059.24	847.00
1059.48	858.00
1059.72	890.00
1059.96	894.00
1060.20	886.00
1060.44	894.00
1060.68	931.00
1060.92	904.00
1061.16	859.00
1061.40	877.00
1061.64	902.00
1061.88	905.00
1062.11	860.00
1062.35	863.00
1062.59	878.00
1062.83	916.00
1063.07	887.00
1063.31	859.00
1063.55	868.00
1063.79	905.00
1064.03	878.00
1064.27	850.00
1064.51	886.00
1064.75	910.00
1064.99	871.00
1065.23	868.00
1065.47	854.00
1065.71	896.00
1065.95	866.00
1066.19	885.00
1066.43	927.00
1066.67	918.00
1066.91	893.00
1067.15	880.00
1067.38	887.00
1067.62	902.00
1067.86	864.00
1068.10	887.00
1068.34	936.00
1068.58	922.00
1068.82	870.00
1069.06	849.00
1069.30	878.00
1069.54	920.00
1069.78	896.00
1070.02	884.00
1070.26	920.00
1070.50	921.00
1070.74	857.00
1070.98	889.00
1071.21	898.00
1071.45	897.00
1071.69	867.00
1071.93	882.00
1072.17	895.00
1072.41	915.00
1072.65	898.00
1072.89	889.00
1073.13	885.00
1073.37	878.00
1073.61	860.00
1073.85	899.00
1074.09	886.00
1074.32	880.00
1074.56	886.00
1074.80	972.00
1075.04	1156.00
1075.28	978.00
1075.52	878.00
1075.76	884.00
1076.00	914.00
1076.24	905.00
1076.48	884.00
1076.72	905.00
1076.96	926.00
1077.19	893.00
1077.43	851.00
1077.67	894.00
1077.91	874.00
1078.15	867.00
1078.39	874.00
1078.63	880.00
1078.87	907.00
1079.11	900.00
1079.35	857.00
1079.58	856.00
1079.82	884.00
1080.06	890.00
1080.30	856.00
1080.54	896.00
1080.78	933.00
1081.02	903.00
1081.26	870.00
1081.50	892.00
1081.74	910.00
1081.97	910.00
1082.21	872.00
1082.45	889.00
1082.69	897.00
1082.93	882.00
1083.17	886.00
1083.41	872.00
1083.65	914.00
1083.88	926.00
1084.12	892.00
1084.36	893.00
1084.60	897.00
1084.84	903.00
1085.08	843.00
1085.32	882.00
1085.56	920.00
1085.80	912.00
1086.03	878.00
1086.27	875.00
1086.51	886.00
1086.75	910.00
1086.99	870.00
1087.23	847.00
1087.47	878.00
1087.70	885.00
1087.94	863.00
1088.18	922.00
1088.42	940.00
1088.66	902.00
1088.90	849.00
1089.14	874.00
1089.38	906.00
1089.61	904.00
1089.85	869.00
1090.09	874.00
1090.33	913.00
1090.57	922.00
1090.81	834.00
1091.05	871.00
1091.28	901.00
1091.52	900.00
1091.76	868.00
1092.00	885.00
1092.24	903.00
1092.48	915.00
1092.71	864.00
1092.95	889.00
1093.19	914.00
1093.43	902.00
1093.67	858.00
1093.91	878.00
1094.15	894.00
1094.38	899.00
1094.62	862.00
1094.86	865.00
1095.10	860.00
1095.34	886.00
1095.58	870.00
1095.81	893.00
1096.05	917.00
1096.29	908.00
1096.53	839.00
1096.77	855.00
1097.01	884.00
1097.24	912.00
1097.48	861.00
1097.72	886.00
1097.96	902.00
1098.20	914.00
1098.44	851.00
1098.67	837.00
1098.91	906.00
1099.15	900.00
1099.39	857.00
1099.63	872.00
1099.86	893.00
1100.10	882.00
1100.34	866.00
1100.58	860.00
1100.82	887.00
1101.06	892.00
1101.29	861.00
1101.53	888.00
1101.77	906.00
1102.01	877.00
1102.25	862.00
1102.48	891.00
1102.72	924.00
1102.96	890.00
1103.20	846.00
1103.44	884.00
1103.67	892.00
1103.91	910.00
1104.15	851.00
1104.39	853.00
1104.63	890.00
1104.86	855.00
1105.10	839.00
1105.34	892.00
1105.58	875.00
1105.82	880.00
1106.05	866.00
1106.29	883.00
1106.53	887.00
1106.77	930.00
1107.01	866.00
1107.24	892.00
1107.48	924.00
1107.72	902.00
1107.96	854.00
1108.20	884.00
1108.43	899.00
1108.67	882.00
1108.91	852.00
1109.15	877.00
1109.39	884.00
1109.62	888.00
1109.86	864.00
1110.10	868.00
1110.34	934.00
1110.57	953.00
1110.81	871.00
1111.05	877.00
1111.29	922.00
1111.53	932.00
1111.76	871.00
1112.00	906.00
1112.24	925.00
1112.48	919.00
1112.71	851.00
1112.95	870.00
1113.19	916.00
1113.43	890.00
1113.66	851.00
1113.90	880.00
1114.14	906.00
1114.38	881.00
1114.62	851.00
1114.85	905.00
1115.09	900.00
1115.33	957.00
1115.57	889.00
1115.80	846.00
1116.04	887.00
1116.28	890.00
1116.52	869.00
1116.75	877.00
1116.99	906.00
1117.23	925.00
1117.47	896.00
1117.70	916.00
1117.94	962.00
1118.18	885.00
1118.42	854.00
1118.65	893.00
1118.89	919.00
1119.13	893.00
1119.37	851.00
1119.60	885.00
1119.84	910.00
>>>>>End Processed Spectral Data<<<<<
