SpectraSuite Data File
++++++++++++++++++++++++++++++++++++
Date: Fri Dec 06 16:16:52 CET 2024
User: student
Dark Spectrum Present: Yes
Reference Spectrum Present: Yes
Number of Sampled Component Spectra: 1
Spectrometers: HR4C155
Integration Time (usec): 100000 (HR4C155)
Spectra Averaged: 1 (HR4C155)
Boxcar Smoothing: 0 (HR4C155)
Correct for Electrical Dark: No (HR4C155)
Strobe/Lamp Enabled: No (HR4C155)
Correct for Detector Non-linearity: No (HR4C155)
Correct for Stray Light: No (HR4C155)
Number of Pixels in Processed Spectrum: 3648
>>>>>Begin Processed Spectral Data<<<<<
195.39	687.00
195.66	687.00
195.93	687.00
196.20	674.00
196.46	714.00
196.73	836.00
197.00	834.00
197.27	837.00
197.54	857.00
197.81	871.00
198.08	856.00
198.35	890.00
198.61	908.00
198.88	877.00
199.15	878.00
199.42	890.00
199.69	895.00
199.96	877.00
200.23	873.00
200.49	882.00
200.76	902.00
201.03	886.00
201.30	870.00
201.57	938.00
201.84	948.00
202.11	894.00
202.38	908.00
202.64	917.00
202.91	943.00
203.18	882.00
203.45	930.00
203.72	1038.00
203.99	953.00
204.25	919.00
204.52	919.00
204.79	944.00
205.06	941.00
205.33	885.00
205.60	911.00
205.87	943.00
206.13	946.00
206.40	924.00
206.67	904.00
206.94	924.00
207.21	948.00
207.48	916.00
207.75	886.00
208.01	942.00
208.28	942.00
208.55	917.00
208.82	919.00
209.09	926.00
209.36	943.00
209.62	927.00
209.89	943.00
210.16	944.00
210.43	972.00
210.70	892.00
210.97	908.00
211.23	939.00
211.50	963.00
211.77	908.00
212.04	921.00
212.31	934.00
212.58	952.00
212.84	916.00
213.11	941.00
213.38	899.00
213.65	921.00
213.92	898.00
214.18	930.00
214.45	967.00
214.72	943.00
214.99	882.00
215.26	908.00
215.53	889.00
215.79	934.00
216.06	933.00
216.33	938.00
216.60	925.00
216.87	948.00
217.13	884.00
217.40	920.00
217.67	949.00
217.94	974.00
218.21	885.00
218.48	948.00
218.74	1001.00
219.01	953.00
219.28	884.00
219.55	889.00
219.82	910.00
220.08	924.00
220.35	910.00
220.62	924.00
220.89	970.00
221.16	973.00
221.42	922.00
221.69	929.00
221.96	951.00
222.23	954.00
222.50	940.00
222.76	955.00
223.03	939.00
223.30	914.00
223.57	891.00
223.84	877.00
224.10	902.00
224.37	930.00
224.64	898.00
224.91	911.00
225.18	955.00
225.44	945.00
225.71	912.00
225.98	937.00
226.25	972.00
226.51	963.00
226.78	892.00
227.05	909.00
227.32	914.00
227.59	937.00
227.85	938.00
228.12	936.00
228.39	967.00
228.66	982.00
228.92	987.00
229.19	942.00
229.46	940.00
229.73	923.00
230.00	896.00
230.26	932.00
230.53	967.00
230.80	949.00
231.07	874.00
231.33	874.00
231.60	935.00
231.87	946.00
232.14	910.00
232.41	947.00
232.67	938.00
232.94	939.00
233.21	918.00
233.48	930.00
233.74	921.00
234.01	915.00
234.28	889.00
234.55	914.00
234.81	915.00
235.08	967.00
235.35	909.00
235.62	911.00
235.88	914.00
236.15	939.00
236.42	899.00
236.69	913.00
236.95	958.00
237.22	931.00
237.49	916.00
237.76	901.00
238.02	952.00
238.29	968.00
238.56	908.00
238.83	906.00
239.09	925.00
239.36	958.00
239.63	909.00
239.90	913.00
240.16	958.00
240.43	980.00
240.70	912.00
240.97	904.00
241.23	913.00
241.50	940.00
241.77	919.00
242.04	911.00
242.30	902.00
242.57	914.00
242.84	891.00
243.11	920.00
243.37	896.00
243.64	951.00
243.91	907.00
244.18	915.00
244.44	900.00
244.71	906.00
244.98	902.00
245.24	915.00
245.51	927.00
245.78	941.00
246.05	889.00
246.31	901.00
246.58	933.00
246.85	928.00
247.12	886.00
247.38	922.00
247.65	937.00
247.92	934.00
248.18	907.00
248.45	911.00
248.72	923.00
248.99	930.00
249.25	889.00
249.52	909.00
249.79	938.00
250.05	938.00
250.32	903.00
250.59	904.00
250.86	919.00
251.12	919.00
251.39	891.00
251.66	935.00
251.92	962.00
252.19	948.00
252.46	882.00
252.73	931.00
252.99	957.00
253.26	960.00
253.53	893.00
253.79	917.00
254.06	936.00
254.33	904.00
254.60	877.00
254.86	901.00
255.13	947.00
255.40	973.00
255.66	921.00
255.93	919.00
256.20	921.00
256.46	925.00
256.73	899.00
257.00	907.00
257.26	936.00
257.53	940.00
257.80	919.00
258.07	936.00
258.33	968.00
258.60	946.00
258.87	892.00
259.13	921.00
259.40	917.00
259.67	965.00
259.93	918.00
260.20	936.00
260.47	954.00
260.73	925.00
261.00	908.00
261.27	916.00
261.53	951.00
261.80	935.00
262.07	892.00
262.34	905.00
262.60	889.00
262.87	916.00
263.14	898.00
263.40	935.00
263.67	915.00
263.94	914.00
264.20	905.00
264.47	896.00
264.74	882.00
265.00	917.00
265.27	879.00
265.54	892.00
265.80	949.00
266.07	951.00
266.34	897.00
266.60	912.00
266.87	935.00
267.14	941.00
267.40	901.00
267.67	889.00
267.94	928.00
268.20	935.00
268.47	890.00
268.74	907.00
269.00	932.00
269.27	910.00
269.54	856.00
269.80	889.00
270.07	944.00
270.33	920.00
270.60	894.00
270.87	922.00
271.13	903.00
271.40	942.00
271.67	870.00
271.93	854.00
272.20	899.00
272.47	900.00
272.73	861.00
273.00	918.00
273.27	942.00
273.53	967.00
273.80	894.00
274.07	886.00
274.33	905.00
274.60	939.00
274.86	903.00
275.13	913.00
275.40	920.00
275.66	954.00
275.93	902.00
276.20	894.00
276.46	913.00
276.73	913.00
277.00	889.00
277.26	908.00
277.53	947.00
277.79	922.00
278.06	900.00
278.33	949.00
278.59	936.00
278.86	909.00
279.13	900.00
279.39	913.00
279.66	952.00
279.93	959.00
280.19	893.00
280.46	912.00
280.72	921.00
280.99	940.00
281.26	902.00
281.52	903.00
281.79	945.00
282.05	946.00
282.32	912.00
282.59	912.00
282.85	948.00
283.12	942.00
283.39	894.00
283.65	909.00
283.92	918.00
284.18	927.00
284.45	910.00
284.72	929.00
284.98	928.00
285.25	916.00
285.51	922.00
285.78	919.00
286.05	902.00
286.31	913.00
286.58	871.00
286.84	886.00
287.11	922.00
287.38	928.00
287.64	924.00
287.91	891.00
288.17	917.00
288.44	919.00
288.71	892.00
288.97	908.00
289.24	935.00
289.50	918.00
289.77	923.00
290.04	903.00
290.30	904.00
290.57	946.00
290.83	874.00
291.10	888.00
291.37	928.00
291.63	909.00
291.90	931.00
292.16	915.00
292.43	915.00
292.70	903.00
292.96	865.00
293.23	882.00
293.49	897.00
293.76	925.00
294.02	892.00
294.29	898.00
294.56	926.00
294.82	937.00
295.09	900.00
295.35	886.00
295.62	958.00
295.89	955.00
296.15	877.00
296.42	883.00
296.68	913.00
296.95	910.00
297.21	918.00
297.48	905.00
297.75	904.00
298.01	948.00
298.28	900.00
298.54	909.00
298.81	917.00
299.07	936.00
299.34	880.00
299.61	884.00
299.87	922.00
300.14	915.00
300.40	910.00
300.67	893.00
300.93	931.00
301.20	956.00
301.46	897.00
301.73	896.00
302.00	917.00
302.26	909.00
302.53	906.00
302.79	899.00
303.06	940.00
303.32	976.00
303.59	880.00
303.85	888.00
304.12	919.00
304.39	938.00
304.65	909.00
304.92	922.00
305.18	930.00
305.45	914.00
305.71	898.00
305.98	909.00
306.24	912.00
306.51	917.00
306.77	903.00
307.04	919.00
307.31	950.00
307.57	936.00
307.84	876.00
308.10	891.00
308.37	889.00
308.63	915.00
308.90	897.00
309.16	912.00
309.43	941.00
309.69	913.00
309.96	900.00
310.22	900.00
310.49	922.00
310.76	926.00
311.02	856.00
311.29	882.00
311.55	885.00
311.82	918.00
312.08	911.00
312.35	915.00
312.61	941.00
312.88	954.00
313.14	896.00
313.41	889.00
313.67	880.00
313.94	922.00
314.20	917.00
314.47	917.00
314.73	917.00
315.00	921.00
315.26	879.00
315.53	913.00
315.79	932.00
316.06	930.00
316.32	915.00
316.59	925.00
316.85	920.00
317.12	945.00
317.39	882.00
317.65	891.00
317.92	906.00
318.18	923.00
318.45	884.00
318.71	938.00
318.98	949.00
319.24	933.00
319.51	911.00
319.77	900.00
320.04	901.00
320.30	906.00
320.57	891.00
320.83	905.00
321.10	892.00
321.36	905.00
321.63	900.00
321.89	885.00
322.16	942.00
322.42	932.00
322.69	889.00
322.95	898.00
323.22	933.00
323.48	941.00
323.75	894.00
324.01	918.00
324.28	925.00
324.54	923.00
324.80	902.00
325.07	917.00
325.33	942.00
325.60	909.00
325.86	881.00
326.13	897.00
326.39	907.00
326.66	901.00
326.92	860.00
327.19	882.00
327.45	953.00
327.72	955.00
327.98	884.00
328.25	897.00
328.51	924.00
328.78	925.00
329.04	883.00
329.31	905.00
329.57	919.00
329.84	917.00
330.10	887.00
330.37	911.00
330.63	939.00
330.89	948.00
331.16	906.00
331.42	897.00
331.69	926.00
331.95	913.00
332.22	914.00
332.48	934.00
332.75	920.00
333.01	891.00
333.28	885.00
333.54	901.00
333.81	931.00
334.07	929.00
334.34	909.00
334.60	923.00
334.86	962.00
335.13	968.00
335.39	898.00
335.66	907.00
335.92	934.00
336.19	938.00
336.45	868.00
336.72	889.00
336.98	898.00
337.24	944.00
337.51	880.00
337.77	895.00
338.04	921.00
338.30	921.00
338.57	873.00
338.83	911.00
339.10	928.00
339.36	929.00
339.63	929.00
339.89	878.00
340.15	903.00
340.42	938.00
340.68	921.00
340.95	918.00
341.21	910.00
341.48	920.00
341.74	874.00
342.00	877.00
342.27	923.00
342.53	921.00
342.80	887.00
343.06	908.00
343.33	929.00
343.59	954.00
343.85	892.00
344.12	910.00
344.38	985.00
344.65	955.00
344.91	898.00
345.18	894.00
345.44	902.00
345.70	903.00
345.97	869.00
346.23	895.00
346.50	927.00
346.76	927.00
347.03	907.00
347.29	904.00
347.55	915.00
347.82	914.00
348.08	863.00
348.35	884.00
348.61	952.00
348.87	932.00
349.14	867.00
349.40	884.00
349.67	920.00
349.93	900.00
350.20	901.00
350.46	920.00
350.72	956.00
350.99	924.00
351.25	907.00
351.52	918.00
351.78	901.00
352.04	914.00
352.31	886.00
352.57	903.00
352.84	886.00
353.10	910.00
353.36	903.00
353.63	901.00
353.89	916.00
354.16	926.00
354.42	893.00
354.68	905.00
354.95	961.00
355.21	933.00
355.48	873.00
355.74	918.00
356.00	957.00
356.27	952.00
356.53	884.00
356.80	898.00
357.06	945.00
357.32	948.00
357.59	922.00
357.85	908.00
358.11	939.00
358.38	930.00
358.64	902.00
358.91	913.00
359.17	941.00
359.43	946.00
359.70	905.00
359.96	913.00
360.22	948.00
360.49	912.00
360.75	892.00
361.02	871.00
361.28	889.00
361.54	913.00
361.81	866.00
362.07	900.00
362.33	903.00
362.60	896.00
362.86	867.00
363.13	903.00
363.39	938.00
363.65	938.00
363.92	854.00
364.18	850.00
364.44	905.00
364.71	921.00
364.97	889.00
365.24	890.00
365.50	930.00
365.76	928.00
366.03	890.00
366.29	912.00
366.55	916.00
366.82	902.00
367.08	874.00
367.34	903.00
367.61	954.00
367.87	945.00
368.13	905.00
368.40	900.00
368.66	958.00
368.93	946.00
369.19	874.00
369.45	885.00
369.72	935.00
369.98	901.00
370.24	866.00
370.51	890.00
370.77	928.00
371.03	912.00
371.30	904.00
371.56	931.00
371.82	932.00
372.09	935.00
372.35	904.00
372.61	916.00
372.88	929.00
373.14	938.00
373.40	875.00
373.67	888.00
373.93	925.00
374.19	942.00
374.46	897.00
374.72	875.00
374.98	907.00
375.25	915.00
375.51	920.00
375.77	939.00
376.04	940.00
376.30	934.00
376.56	891.00
376.83	887.00
377.09	933.00
377.35	933.00
377.62	909.00
377.88	899.00
378.14	907.00
378.41	923.00
378.67	888.00
378.93	894.00
379.20	920.00
379.46	903.00
379.72	879.00
379.99	880.00
380.25	895.00
380.51	877.00
380.77	883.00
381.04	907.00
381.30	928.00
381.56	943.00
381.83	912.00
382.09	901.00
382.35	916.00
382.62	932.00
382.88	918.00
383.14	905.00
383.41	909.00
383.67	907.00
383.93	907.00
384.20	904.00
384.46	924.00
384.72	948.00
384.98	886.00
385.25	901.00
385.51	923.00
385.77	916.00
386.04	877.00
386.30	873.00
386.56	941.00
386.82	985.00
387.09	902.00
387.35	932.00
387.61	973.00
387.88	941.00
388.14	920.00
388.40	933.00
388.67	915.00
388.93	901.00
389.19	889.00
389.45	899.00
389.72	910.00
389.98	921.00
390.24	879.00
390.51	876.00
390.77	930.00
391.03	959.00
391.29	881.00
391.56	884.00
391.82	931.00
392.08	952.00
392.35	897.00
392.61	888.00
392.87	920.00
393.13	941.00
393.40	900.00
393.66	910.00
393.92	925.00
394.18	926.00
394.45	883.00
394.71	878.00
394.97	893.00
395.24	890.00
395.50	867.00
395.76	917.00
396.02	928.00
396.29	922.00
396.55	869.00
396.81	855.00
397.07	896.00
397.34	892.00
397.60	866.00
397.86	878.00
398.12	905.00
398.39	944.00
398.65	889.00
398.91	888.00
399.17	902.00
399.44	878.00
399.70	848.00
399.96	885.00
400.22	887.00
400.49	941.00
400.75	917.00
401.01	896.00
401.27	892.00
401.54	930.00
401.80	893.00
402.06	874.00
402.32	934.00
402.59	914.00
402.85	883.00
403.11	915.00
403.37	913.00
403.64	946.00
403.90	889.00
404.16	889.00
404.42	903.00
404.69	884.00
404.95	873.00
405.21	863.00
405.47	905.00
405.74	937.00
406.00	899.00
406.26	884.00
406.52	909.00
406.79	930.00
407.05	884.00
407.31	885.00
407.57	893.00
407.83	917.00
408.10	858.00
408.36	883.00
408.62	892.00
408.88	900.00
409.15	881.00
409.41	845.00
409.67	866.00
409.93	932.00
410.20	907.00
410.46	889.00
410.72	893.00
410.98	906.00
411.24	886.00
411.51	895.00
411.77	883.00
412.03	915.00
412.29	892.00
412.55	909.00
412.82	900.00
413.08	918.00
413.34	902.00
413.60	898.00
413.87	921.00
414.13	929.00
414.39	872.00
414.65	885.00
414.91	922.00
415.18	900.00
415.44	870.00
415.70	874.00
415.96	898.00
416.22	918.00
416.49	869.00
416.75	878.00
417.01	904.00
417.27	910.00
417.53	887.00
417.80	895.00
418.06	916.00
418.32	943.00
418.58	879.00
418.84	883.00
419.11	900.00
419.37	937.00
419.63	906.00
419.89	896.00
420.15	908.00
420.42	884.00
420.68	873.00
420.94	903.00
421.20	913.00
421.46	915.00
421.72	901.00
421.99	903.00
422.25	919.00
422.51	928.00
422.77	900.00
423.03	909.00
423.30	909.00
423.56	934.00
423.82	920.00
424.08	911.00
424.34	926.00
424.60	918.00
424.87	890.00
425.13	884.00
425.39	882.00
425.65	877.00
425.91	885.00
426.18	910.00
426.44	913.00
426.70	888.00
426.96	858.00
427.22	868.00
427.48	906.00
427.75	900.00
428.01	845.00
428.27	882.00
428.53	927.00
428.79	884.00
429.05	861.00
429.32	891.00
429.58	941.00
429.84	893.00
430.10	906.00
430.36	898.00
430.62	932.00
430.88	922.00
431.15	902.00
431.41	900.00
431.67	914.00
431.93	904.00
432.19	872.00
432.45	901.00
432.72	923.00
432.98	913.00
433.24	917.00
433.50	981.00
433.76	889.00
434.02	882.00
434.28	867.00
434.55	886.00
434.81	908.00
435.07	912.00
435.33	875.00
435.59	866.00
435.85	888.00
436.11	913.00
436.38	865.00
436.64	876.00
436.90	886.00
437.16	891.00
437.42	865.00
437.68	879.00
437.94	923.00
438.21	935.00
438.47	932.00
438.73	916.00
438.99	915.00
439.25	920.00
439.51	881.00
439.77	909.00
440.03	898.00
440.30	919.00
440.56	897.00
440.82	916.00
441.08	930.00
441.34	921.00
441.60	866.00
441.86	877.00
442.12	922.00
442.39	929.00
442.65	884.00
442.91	886.00
443.17	900.00
443.43	904.00
443.69	892.00
443.95	876.00
444.21	898.00
444.47	935.00
444.74	866.00
445.00	886.00
445.26	907.00
445.52	906.00
445.78	884.00
446.04	882.00
446.30	930.00
446.56	922.00
446.82	874.00
447.09	894.00
447.35	936.00
447.61	908.00
447.87	881.00
448.13	888.00
448.39	943.00
448.65	931.00
448.91	880.00
449.17	883.00
449.43	894.00
449.70	908.00
449.96	877.00
450.22	880.00
450.48	914.00
450.74	953.00
451.00	889.00
451.26	888.00
451.52	907.00
451.78	895.00
452.04	872.00
452.31	912.00
452.57	905.00
452.83	893.00
453.09	876.00
453.35	883.00
453.61	901.00
453.87	909.00
454.13	919.00
454.39	917.00
454.65	970.00
454.91	946.00
455.17	874.00
455.44	884.00
455.70	923.00
455.96	916.00
456.22	887.00
456.48	893.00
456.74	934.00
457.00	874.00
457.26	829.00
457.52	865.00
457.78	894.00
458.04	913.00
458.30	867.00
458.56	891.00
458.82	889.00
459.09	883.00
459.35	841.00
459.61	874.00
459.87	909.00
460.13	935.00
460.39	891.00
460.65	876.00
460.91	939.00
461.17	894.00
461.43	858.00
461.69	874.00
461.95	917.00
462.21	901.00
462.47	888.00
462.73	925.00
462.99	933.00
463.26	918.00
463.52	872.00
463.78	870.00
464.04	884.00
464.30	898.00
464.56	871.00
464.82	889.00
465.08	935.00
465.34	940.00
465.60	902.00
465.86	901.00
466.12	894.00
466.38	874.00
466.64	853.00
466.90	878.00
467.16	912.00
467.42	910.00
467.68	865.00
467.94	888.00
468.20	939.00
468.46	909.00
468.72	885.00
468.98	905.00
469.25	918.00
469.51	899.00
469.77	905.00
470.03	892.00
470.29	900.00
470.55	925.00
470.81	897.00
471.07	897.00
471.33	917.00
471.59	916.00
471.85	879.00
472.11	901.00
472.37	905.00
472.63	893.00
472.89	889.00
473.15	873.00
473.41	908.00
473.67	911.00
473.93	859.00
474.19	858.00
474.45	877.00
474.71	906.00
474.97	879.00
475.23	887.00
475.49	897.00
475.75	870.00
476.01	882.00
476.27	908.00
476.53	934.00
476.79	933.00
477.05	890.00
477.31	879.00
477.57	923.00
477.83	914.00
478.09	853.00
478.35	915.00
478.61	937.00
478.87	899.00
479.13	860.00
479.39	911.00
479.65	933.00
479.91	929.00
480.17	889.00
480.43	921.00
480.69	889.00
480.95	909.00
481.21	869.00
481.47	887.00
481.73	901.00
481.99	885.00
482.25	867.00
482.51	865.00
482.77	910.00
483.03	894.00
483.29	895.00
483.55	881.00
483.81	924.00
484.07	929.00
484.33	877.00
484.59	884.00
484.85	929.00
485.11	918.00
485.37	895.00
485.63	892.00
485.89	906.00
486.15	884.00
486.41	889.00
486.67	894.00
486.93	910.00
487.19	883.00
487.45	865.00
487.71	885.00
487.97	919.00
488.23	923.00
488.49	870.00
488.75	868.00
489.01	909.00
489.27	927.00
489.53	879.00
489.79	871.00
490.05	918.00
490.31	941.00
490.57	916.00
490.83	954.00
491.08	902.00
491.34	881.00
491.60	861.00
491.86	894.00
492.12	955.00
492.38	938.00
492.64	871.00
492.90	868.00
493.16	916.00
493.42	888.00
493.68	872.00
493.94	894.00
494.20	898.00
494.46	913.00
494.72	880.00
494.98	874.00
495.24	880.00
495.50	909.00
495.76	905.00
496.02	912.00
496.28	907.00
496.54	898.00
496.80	876.00
497.05	865.00
497.31	910.00
497.57	912.00
497.83	884.00
498.09	908.00
498.35	929.00
498.61	911.00
498.87	891.00
499.13	886.00
499.39	903.00
499.65	880.00
499.91	899.00
500.17	887.00
500.43	974.00
500.69	981.00
500.95	873.00
501.20	919.00
501.46	933.00
501.72	932.00
501.98	922.00
502.24	912.00
502.50	937.00
502.76	901.00
503.02	888.00
503.28	904.00
503.54	967.00
503.80	955.00
504.06	910.00
504.32	916.00
504.58	907.00
504.83	900.00
505.09	870.00
505.35	889.00
505.61	889.00
505.87	910.00
506.13	890.00
506.39	883.00
506.65	929.00
506.91	950.00
507.17	889.00
507.43	887.00
507.68	905.00
507.94	939.00
508.20	884.00
508.46	863.00
508.72	931.00
508.98	954.00
509.24	883.00
509.50	887.00
509.76	895.00
510.02	920.00
510.28	871.00
510.53	880.00
510.79	922.00
511.05	917.00
511.31	876.00
511.57	882.00
511.83	909.00
512.09	936.00
512.35	885.00
512.61	874.00
512.87	894.00
513.12	897.00
513.38	859.00
513.64	895.00
513.90	916.00
514.16	946.00
514.42	895.00
514.68	904.00
514.94	924.00
515.20	912.00
515.45	854.00
515.71	867.00
515.97	907.00
516.23	904.00
516.49	872.00
516.75	899.00
517.01	898.00
517.27	899.00
517.53	879.00
517.78	884.00
518.04	911.00
518.30	905.00
518.56	866.00
518.82	903.00
519.08	940.00
519.34	886.00
519.60	867.00
519.85	882.00
520.11	903.00
520.37	885.00
520.63	891.00
520.89	894.00
521.15	897.00
521.41	893.00
521.66	870.00
521.92	878.00
522.18	933.00
522.44	941.00
522.70	893.00
522.96	844.00
523.22	896.00
523.48	900.00
523.73	888.00
523.99	900.00
524.25	943.00
524.51	916.00
524.77	866.00
525.03	875.00
525.29	903.00
525.54	907.00
525.80	869.00
526.06	871.00
526.32	894.00
526.58	889.00
526.84	862.00
527.09	894.00
527.35	892.00
527.61	897.00
527.87	860.00
528.13	896.00
528.39	890.00
528.65	876.00
528.90	855.00
529.16	865.00
529.42	861.00
529.68	890.00
529.94	868.00
530.20	884.00
530.45	887.00
530.71	904.00
530.97	868.00
531.23	878.00
531.49	885.00
531.75	889.00
532.00	873.00
532.26	870.00
532.52	904.00
532.78	880.00
533.04	852.00
533.30	873.00
533.55	894.00
533.81	896.00
534.07	869.00
534.33	875.00
534.59	917.00
534.85	910.00
535.10	873.00
535.36	863.00
535.62	898.00
535.88	907.00
536.14	864.00
536.39	873.00
536.65	913.00
536.91	922.00
537.17	878.00
537.43	871.00
537.69	924.00
537.94	915.00
538.20	852.00
538.46	889.00
538.72	904.00
538.98	914.00
539.23	879.00
539.49	863.00
539.75	917.00
540.01	911.00
540.27	882.00
540.52	922.00
540.78	916.00
541.04	934.00
541.30	888.00
541.56	853.00
541.81	920.00
542.07	965.00
542.33	892.00
542.59	874.00
542.85	910.00
543.10	924.00
543.36	862.00
543.62	916.00
543.88	906.00
544.14	898.00
544.39	870.00
544.65	902.00
544.91	931.00
545.17	907.00
545.43	870.00
545.68	873.00
545.94	919.00
546.20	926.00
546.46	886.00
546.71	898.00
546.97	915.00
547.23	914.00
547.49	879.00
547.75	877.00
548.00	892.00
548.26	920.00
548.52	881.00
548.78	868.00
549.03	889.00
549.29	894.00
549.55	875.00
549.81	897.00
550.07	920.00
550.32	921.00
550.58	871.00
550.84	903.00
551.10	909.00
551.35	911.00
551.61	868.00
551.87	885.00
552.13	920.00
552.39	879.00
552.64	851.00
552.90	878.00
553.16	890.00
553.42	904.00
553.67	878.00
553.93	881.00
554.19	927.00
554.45	934.00
554.70	888.00
554.96	870.00
555.22	911.00
555.48	916.00
555.73	879.00
555.99	882.00
556.25	891.00
556.51	895.00
556.76	883.00
557.02	900.00
557.28	909.00
557.54	900.00
557.79	876.00
558.05	908.00
558.31	886.00
558.57	907.00
558.82	867.00
559.08	857.00
559.34	861.00
559.60	897.00
559.85	882.00
560.11	895.00
560.37	906.00
560.63	885.00
560.88	868.00
561.14	878.00
561.40	916.00
561.66	876.00
561.91	867.00
562.17	886.00
562.43	912.00
562.68	914.00
562.94	877.00
563.20	901.00
563.46	931.00
563.71	937.00
563.97	871.00
564.23	910.00
564.49	930.00
564.74	895.00
565.00	869.00
565.26	886.00
565.51	913.00
565.77	900.00
566.03	870.00
566.29	880.00
566.54	871.00
566.80	880.00
567.06	876.00
567.31	911.00
567.57	906.00
567.83	876.00
568.09	863.00
568.34	869.00
568.60	887.00
568.86	941.00
569.11	908.00
569.37	901.00
569.63	918.00
569.89	925.00
570.14	845.00
570.40	873.00
570.66	889.00
570.91	902.00
571.17	882.00
571.43	910.00
571.69	939.00
571.94	929.00
572.20	868.00
572.46	885.00
572.71	924.00
572.97	905.00
573.23	851.00
573.48	873.00
573.74	900.00
574.00	937.00
574.26	886.00
574.51	900.00
574.77	922.00
575.03	910.00
575.28	881.00
575.54	862.00
575.80	873.00
576.05	895.00
576.31	872.00
576.57	850.00
576.82	894.00
577.08	893.00
577.34	869.00
577.59	885.00
577.85	926.00
578.11	888.00
578.37	849.00
578.62	853.00
578.88	903.00
579.14	927.00
579.39	894.00
579.65	903.00
579.91	902.00
580.16	904.00
580.42	888.00
580.68	884.00
580.93	906.00
581.19	883.00
581.45	867.00
581.70	886.00
581.96	906.00
582.22	911.00
582.47	891.00
582.73	896.00
582.99	934.00
583.24	922.00
583.50	869.00
583.76	876.00
584.01	906.00
584.27	923.00
584.53	882.00
584.78	882.00
585.04	880.00
585.30	908.00
585.55	881.00
585.81	871.00
586.07	921.00
586.32	927.00
586.58	900.00
586.83	889.00
587.09	908.00
587.35	911.00
587.60	860.00
587.86	870.00
588.12	881.00
588.37	888.00
588.63	875.00
588.89	888.00
589.14	899.00
589.40	905.00
589.66	873.00
589.91	888.00
590.17	905.00
590.43	868.00
590.68	859.00
590.94	886.00
591.19	910.00
591.45	905.00
591.71	868.00
591.96	882.00
592.22	905.00
592.48	919.00
592.73	854.00
592.99	871.00
593.25	887.00
593.50	917.00
593.76	877.00
594.01	890.00
594.27	923.00
594.53	901.00
594.78	857.00
595.04	891.00
595.30	897.00
595.55	890.00
595.81	847.00
596.06	881.00
596.32	925.00
596.58	927.00
596.83	871.00
597.09	902.00
597.35	896.00
597.60	881.00
597.86	867.00
598.11	871.00
598.37	921.00
598.63	920.00
598.88	874.00
599.14	875.00
599.39	938.00
599.65	919.00
599.91	848.00
600.16	876.00
600.42	904.00
600.67	921.00
600.93	850.00
601.19	894.00
601.44	954.00
601.70	933.00
601.95	871.00
602.21	891.00
602.47	884.00
602.72	913.00
602.98	859.00
603.23	872.00
603.49	924.00
603.75	921.00
604.00	886.00
604.26	877.00
604.51	877.00
604.77	904.00
605.03	860.00
605.28	884.00
605.54	934.00
605.79	920.00
606.05	861.00
606.31	867.00
606.56	906.00
606.82	921.00
607.07	883.00
607.33	871.00
607.59	913.00
607.84	887.00
608.10	833.00
608.35	873.00
608.61	900.00
608.86	920.00
609.12	881.00
609.38	915.00
609.63	942.00
609.89	900.00
610.14	839.00
610.40	858.00
610.65	906.00
610.91	890.00
611.17	859.00
611.42	871.00
611.68	924.00
611.93	951.00
612.19	905.00
612.44	912.00
612.70	932.00
612.96	894.00
613.21	856.00
613.47	863.00
613.72	900.00
613.98	908.00
614.23	863.00
614.49	892.00
614.75	920.00
615.00	895.00
615.26	873.00
615.51	872.00
615.77	908.00
616.02	923.00
616.28	877.00
616.53	866.00
616.79	890.00
617.05	882.00
617.30	866.00
617.56	874.00
617.81	910.00
618.07	888.00
618.32	873.00
618.58	909.00
618.83	921.00
619.09	909.00
619.34	864.00
619.60	871.00
619.86	910.00
620.11	932.00
620.37	900.00
620.62	895.00
620.88	923.00
621.13	915.00
621.39	885.00
621.64	912.00
621.90	938.00
622.15	909.00
622.41	886.00
622.66	909.00
622.92	921.00
623.18	930.00
623.43	886.00
623.69	887.00
623.94	918.00
624.20	925.00
624.45	894.00
624.71	916.00
624.96	918.00
625.22	947.00
625.47	893.00
625.73	903.00
625.98	923.00
626.24	912.00
626.49	891.00
626.75	903.00
627.00	946.00
627.26	947.00
627.51	911.00
627.77	940.00
628.02	938.00
628.28	957.00
628.53	916.00
628.79	952.00
629.05	950.00
629.30	929.00
629.56	930.00
629.81	950.00
630.07	956.00
630.32	965.00
630.58	953.00
630.83	973.00
631.09	966.00
631.34	950.00
631.60	923.00
631.85	938.00
632.11	978.00
632.36	984.00
632.62	935.00
632.87	982.00
633.13	995.00
633.38	1010.00
633.64	957.00
633.89	973.00
634.15	1009.00
634.40	1052.00
634.66	1010.00
634.91	1009.00
635.17	1054.00
635.42	1075.00
635.68	1059.00
635.93	1029.00
636.18	1040.00
636.44	1049.00
636.69	1012.00
636.95	1010.00
637.20	1031.00
637.46	1046.00
637.71	1028.00
637.97	1026.00
638.22	1040.00
638.48	1037.00
638.73	1014.00
638.99	987.00
639.24	1045.00
639.50	1032.00
639.75	1015.00
640.01	1035.00
640.26	1055.00
640.52	1072.00
640.77	1005.00
641.03	1022.00
641.28	1071.00
641.54	1063.00
641.79	1018.00
642.04	1029.00
642.30	1022.00
642.55	1010.00
642.81	987.00
643.06	1012.00
643.32	1056.00
643.57	1055.00
643.83	973.00
644.08	955.00
644.34	969.00
644.59	1019.00
644.85	982.00
645.10	984.00
645.35	990.00
645.61	995.00
645.86	946.00
646.12	964.00
646.37	1005.00
646.63	976.00
646.88	904.00
647.14	938.00
647.39	950.00
647.65	968.00
647.90	912.00
648.15	938.00
648.41	952.00
648.66	963.00
648.92	899.00
649.17	925.00
649.43	926.00
649.68	922.00
649.94	909.00
650.19	898.00
650.44	915.00
650.70	922.00
650.95	878.00
651.21	921.00
651.46	943.00
651.72	945.00
651.97	923.00
652.23	908.00
652.48	915.00
652.73	913.00
652.99	891.00
653.24	907.00
653.50	898.00
653.75	894.00
654.01	881.00
654.26	887.00
654.51	906.00
654.77	946.00
655.02	905.00
655.28	866.00
655.53	890.00
655.79	899.00
656.04	881.00
656.29	887.00
656.55	897.00
656.80	929.00
657.06	859.00
657.31	864.00
657.56	893.00
657.82	897.00
658.07	877.00
658.33	903.00
658.58	909.00
658.84	916.00
659.09	876.00
659.34	884.00
659.60	906.00
659.85	897.00
660.11	866.00
660.36	881.00
660.61	877.00
660.87	861.00
661.12	855.00
661.38	864.00
661.63	885.00
661.88	893.00
662.14	900.00
662.39	891.00
662.65	931.00
662.90	954.00
663.15	860.00
663.41	873.00
663.66	909.00
663.92	934.00
664.17	877.00
664.42	901.00
664.68	924.00
664.93	905.00
665.19	857.00
665.44	864.00
665.69	868.00
665.95	886.00
666.20	857.00
666.45	907.00
666.71	899.00
666.96	897.00
667.22	846.00
667.47	874.00
667.72	873.00
667.98	893.00
668.23	869.00
668.49	916.00
668.74	933.00
668.99	924.00
669.25	863.00
669.50	875.00
669.75	889.00
670.01	883.00
670.26	840.00
670.52	855.00
670.77	908.00
671.02	904.00
671.28	877.00
671.53	893.00
671.78	908.00
672.04	921.00
672.29	894.00
672.54	890.00
672.80	896.00
673.05	905.00
673.31	860.00
673.56	911.00
673.81	944.00
674.07	915.00
674.32	888.00
674.57	877.00
674.83	896.00
675.08	909.00
675.33	882.00
675.59	902.00
675.84	922.00
676.09	883.00
676.35	881.00
676.60	892.00
676.86	897.00
677.11	922.00
677.36	883.00
677.62	890.00
677.87	925.00
678.12	949.00
678.38	856.00
678.63	879.00
678.88	899.00
679.14	934.00
679.39	865.00
679.64	888.00
679.90	893.00
680.15	923.00
680.40	893.00
680.66	878.00
680.91	905.00
681.16	912.00
681.42	865.00
681.67	878.00
681.92	897.00
682.18	921.00
682.43	868.00
682.68	863.00
682.94	873.00
683.19	867.00
683.44	848.00
683.70	891.00
683.95	920.00
684.20	902.00
684.46	890.00
684.71	905.00
684.96	901.00
685.22	904.00
685.47	860.00
685.72	892.00
685.98	912.00
686.23	868.00
686.48	870.00
686.74	929.00
686.99	931.00
687.24	906.00
687.50	863.00
687.75	881.00
688.00	886.00
688.25	894.00
688.51	890.00
688.76	905.00
689.01	882.00
689.27	888.00
689.52	843.00
689.77	887.00
690.03	874.00
690.28	873.00
690.53	873.00
690.79	890.00
691.04	898.00
691.29	907.00
691.54	870.00
691.80	891.00
692.05	890.00
692.30	889.00
692.56	867.00
692.81	902.00
693.06	887.00
693.32	869.00
693.57	868.00
693.82	878.00
694.07	899.00
694.33	906.00
694.58	867.00
694.83	904.00
695.09	892.00
695.34	911.00
695.59	876.00
695.84	867.00
696.10	893.00
696.35	903.00
696.60	849.00
696.86	868.00
697.11	887.00
697.36	892.00
697.61	857.00
697.87	886.00
698.12	888.00
698.37	908.00
698.63	888.00
698.88	872.00
699.13	895.00
699.38	896.00
699.64	850.00
699.89	873.00
700.14	873.00
700.39	877.00
700.65	863.00
700.90	902.00
701.15	894.00
701.40	906.00
701.66	876.00
701.91	882.00
702.16	896.00
702.42	890.00
702.67	851.00
702.92	865.00
703.17	890.00
703.43	898.00
703.68	871.00
703.93	916.00
704.18	935.00
704.44	904.00
704.69	875.00
704.94	901.00
705.19	891.00
705.45	902.00
705.70	874.00
705.95	870.00
706.20	890.00
706.46	917.00
706.71	880.00
706.96	881.00
707.21	892.00
707.47	894.00
707.72	866.00
707.97	905.00
708.22	932.00
708.48	934.00
708.73	870.00
708.98	869.00
709.23	885.00
709.49	889.00
709.74	868.00
709.99	876.00
710.24	883.00
710.50	899.00
710.75	886.00
711.00	916.00
711.25	919.00
711.50	894.00
711.76	856.00
712.01	872.00
712.26	889.00
712.51	894.00
712.77	870.00
713.02	887.00
713.27	873.00
713.52	896.00
713.78	880.00
714.03	892.00
714.28	885.00
714.53	902.00
714.78	870.00
715.04	906.00
715.29	915.00
715.54	914.00
715.79	857.00
716.05	888.00
716.30	907.00
716.55	904.00
716.80	875.00
717.05	897.00
717.31	894.00
717.56	914.00
717.81	885.00
718.06	888.00
718.31	863.00
718.57	900.00
718.82	876.00
719.07	917.00
719.32	898.00
719.57	909.00
719.83	865.00
720.08	901.00
720.33	886.00
720.58	877.00
720.83	856.00
721.09	919.00
721.34	909.00
721.59	923.00
721.84	852.00
722.09	875.00
722.35	901.00
722.60	886.00
722.85	864.00
723.10	894.00
723.35	869.00
723.61	907.00
723.86	900.00
724.11	881.00
724.36	882.00
724.61	879.00
724.87	882.00
725.12	880.00
725.37	881.00
725.62	869.00
725.87	857.00
726.12	865.00
726.38	870.00
726.63	900.00
726.88	869.00
727.13	892.00
727.38	882.00
727.64	891.00
727.89	867.00
728.14	888.00
728.39	870.00
728.64	889.00
728.89	875.00
729.15	889.00
729.40	913.00
729.65	923.00
729.90	863.00
730.15	889.00
730.40	903.00
730.66	887.00
730.91	858.00
731.16	883.00
731.41	898.00
731.66	910.00
731.91	882.00
732.17	901.00
732.42	914.00
732.67	890.00
732.92	857.00
733.17	883.00
733.42	910.00
733.68	899.00
733.93	860.00
734.18	893.00
734.43	882.00
734.68	875.00
734.93	866.00
735.18	888.00
735.44	901.00
735.69	891.00
735.94	843.00
736.19	885.00
736.44	883.00
736.69	939.00
736.95	888.00
737.20	889.00
737.45	906.00
737.70	892.00
737.95	885.00
738.20	891.00
738.45	902.00
738.70	912.00
738.96	890.00
739.21	913.00
739.46	907.00
739.71	913.00
739.96	873.00
740.21	903.00
740.46	952.00
740.72	930.00
740.97	864.00
741.22	890.00
741.47	873.00
741.72	907.00
741.97	858.00
742.22	870.00
742.47	906.00
742.73	898.00
742.98	868.00
743.23	868.00
743.48	880.00
743.73	909.00
743.98	878.00
744.23	886.00
744.48	901.00
744.74	884.00
744.99	861.00
745.24	891.00
745.49	892.00
745.74	909.00
745.99	853.00
746.24	875.00
746.49	869.00
746.74	874.00
747.00	889.00
747.25	894.00
747.50	868.00
747.75	884.00
748.00	832.00
748.25	865.00
748.50	877.00
748.75	903.00
749.00	905.00
749.26	932.00
749.51	907.00
749.76	905.00
750.01	860.00
750.26	887.00
750.51	912.00
750.76	898.00
751.01	861.00
751.26	884.00
751.51	898.00
751.77	908.00
752.02	873.00
752.27	869.00
752.52	880.00
752.77	902.00
753.02	880.00
753.27	909.00
753.52	901.00
753.77	892.00
754.02	877.00
754.27	888.00
754.52	875.00
754.78	901.00
755.03	866.00
755.28	877.00
755.53	911.00
755.78	908.00
756.03	857.00
756.28	883.00
756.53	894.00
756.78	908.00
757.03	878.00
757.28	910.00
757.53	892.00
757.79	873.00
758.04	845.00
758.29	923.00
758.54	899.00
758.79	892.00
759.04	844.00
759.29	852.00
759.54	866.00
759.79	865.00
760.04	872.00
760.29	888.00
760.54	895.00
760.79	897.00
761.04	856.00
761.29	886.00
761.55	880.00
761.80	882.00
762.05	844.00
762.30	889.00
762.55	899.00
762.80	912.00
763.05	901.00
763.30	914.00
763.55	922.00
763.80	898.00
764.05	842.00
764.30	888.00
764.55	916.00
764.80	887.00
765.05	861.00
765.30	907.00
765.55	904.00
765.80	888.00
766.05	831.00
766.30	873.00
766.56	883.00
766.81	896.00
767.06	886.00
767.31	891.00
767.56	878.00
767.81	899.00
768.06	876.00
768.31	905.00
768.56	895.00
768.81	942.00
769.06	853.00
769.31	885.00
769.56	901.00
769.81	922.00
770.06	875.00
770.31	867.00
770.56	882.00
770.81	885.00
771.06	845.00
771.31	888.00
771.56	887.00
771.81	916.00
772.06	868.00
772.31	898.00
772.56	899.00
772.81	900.00
773.06	859.00
773.31	885.00
773.56	905.00
773.81	867.00
774.06	842.00
774.31	893.00
774.56	896.00
774.81	929.00
775.06	877.00
775.31	902.00
775.56	900.00
775.81	877.00
776.06	856.00
776.31	890.00
776.56	890.00
776.82	892.00
777.07	868.00
777.32	882.00
777.57	900.00
777.82	925.00
778.07	859.00
778.32	869.00
778.57	899.00
778.82	925.00
779.07	886.00
779.32	881.00
779.57	860.00
779.82	889.00
780.07	854.00
780.32	884.00
780.56	881.00
780.81	908.00
781.06	861.00
781.31	863.00
781.56	892.00
781.81	915.00
782.06	870.00
782.31	913.00
782.56	908.00
782.81	928.00
783.06	884.00
783.31	886.00
783.56	890.00
783.81	907.00
784.06	879.00
784.31	888.00
784.56	853.00
784.81	921.00
785.06	893.00
785.31	895.00
785.56	868.00
785.81	878.00
786.06	841.00
786.31	868.00
786.56	884.00
786.81	893.00
787.06	879.00
787.31	896.00
787.56	874.00
787.81	882.00
788.06	853.00
788.31	884.00
788.56	865.00
788.81	899.00
789.06	881.00
789.31	891.00
789.56	891.00
789.81	884.00
790.06	854.00
790.31	911.00
790.56	884.00
790.80	886.00
791.05	852.00
791.30	859.00
791.55	887.00
791.80	885.00
792.05	868.00
792.30	871.00
792.55	865.00
792.80	891.00
793.05	862.00
793.30	866.00
793.55	882.00
793.80	894.00
794.05	858.00
794.30	881.00
794.55	891.00
794.80	913.00
795.05	860.00
795.30	878.00
795.54	866.00
795.79	903.00
796.04	858.00
796.29	892.00
796.54	889.00
796.79	902.00
797.04	875.00
797.29	899.00
797.54	921.00
797.79	911.00
798.04	880.00
798.29	881.00
798.54	864.00
798.79	878.00
799.04	851.00
799.29	863.00
799.53	873.00
799.78	873.00
800.03	859.00
800.28	868.00
800.53	884.00
800.78	932.00
801.03	872.00
801.28	891.00
801.53	876.00
801.78	912.00
802.03	873.00
802.28	891.00
802.52	904.00
802.77	926.00
803.02	893.00
803.27	910.00
803.52	873.00
803.77	908.00
804.02	909.00
804.27	916.00
804.52	898.00
804.77	909.00
805.02	889.00
805.27	904.00
805.51	886.00
805.76	906.00
806.01	869.00
806.26	873.00
806.51	876.00
806.76	915.00
807.01	886.00
807.26	858.00
807.51	892.00
807.76	873.00
808.00	860.00
808.25	878.00
808.50	894.00
808.75	890.00
809.00	851.00
809.25	858.00
809.50	886.00
809.75	909.00
810.00	888.00
810.24	877.00
810.49	849.00
810.74	860.00
810.99	871.00
811.24	895.00
811.49	895.00
811.74	901.00
811.99	845.00
812.24	889.00
812.48	880.00
812.73	870.00
812.98	840.00
813.23	851.00
813.48	861.00
813.73	861.00
813.98	839.00
814.23	874.00
814.47	860.00
814.72	862.00
814.97	853.00
815.22	902.00
815.47	880.00
815.72	881.00
815.97	838.00
816.22	858.00
816.46	877.00
816.71	894.00
816.96	881.00
817.21	890.00
817.46	874.00
817.71	892.00
817.96	878.00
818.20	870.00
818.45	869.00
818.70	893.00
818.95	864.00
819.20	896.00
819.45	882.00
819.70	897.00
819.94	864.00
820.19	870.00
820.44	870.00
820.69	900.00
820.94	870.00
821.19	900.00
821.44	933.00
821.68	943.00
821.93	878.00
822.18	878.00
822.43	879.00
822.68	894.00
822.93	870.00
823.17	878.00
823.42	893.00
823.67	873.00
823.92	844.00
824.17	880.00
824.42	884.00
824.67	913.00
824.91	886.00
825.16	878.00
825.41	889.00
825.66	887.00
825.91	861.00
826.16	883.00
826.40	876.00
826.65	877.00
826.90	851.00
827.15	879.00
827.40	895.00
827.65	927.00
827.89	845.00
828.14	874.00
828.39	896.00
828.64	890.00
828.89	864.00
829.13	887.00
829.38	868.00
829.63	886.00
829.88	865.00
830.13	861.00
830.38	861.00
830.62	874.00
830.87	868.00
831.12	897.00
831.37	913.00
831.62	913.00
831.86	868.00
832.11	864.00
832.36	846.00
832.61	889.00
832.86	869.00
833.10	884.00
833.35	878.00
833.60	918.00
833.85	886.00
834.10	902.00
834.35	927.00
834.59	922.00
834.84	868.00
835.09	900.00
835.34	863.00
835.59	868.00
835.83	869.00
836.08	881.00
836.33	891.00
836.58	902.00
836.83	870.00
837.07	892.00
837.32	895.00
837.57	885.00
837.82	876.00
838.06	898.00
838.31	897.00
838.56	909.00
838.81	865.00
839.06	885.00
839.30	888.00
839.55	900.00
839.80	880.00
840.05	897.00
840.30	910.00
840.54	934.00
840.79	861.00
841.04	884.00
841.29	902.00
841.53	906.00
841.78	868.00
842.03	864.00
842.28	863.00
842.53	871.00
842.77	877.00
843.02	890.00
843.27	900.00
843.52	911.00
843.76	881.00
844.01	908.00
844.26	884.00
844.51	924.00
844.75	879.00
845.00	858.00
845.25	872.00
845.50	902.00
845.75	873.00
845.99	901.00
846.24	899.00
846.49	892.00
846.74	851.00
846.98	861.00
847.23	870.00
847.48	906.00
847.73	873.00
847.97	872.00
848.22	909.00
848.47	909.00
848.72	862.00
848.96	866.00
849.21	892.00
849.46	880.00
849.71	852.00
849.95	880.00
850.20	864.00
850.45	891.00
850.70	862.00
850.94	888.00
851.19	876.00
851.44	876.00
851.69	842.00
851.93	878.00
852.18	878.00
852.43	900.00
852.68	878.00
852.92	913.00
853.17	939.00
853.42	908.00
853.66	883.00
853.91	902.00
854.16	887.00
854.41	934.00
854.65	876.00
854.90	885.00
855.15	882.00
855.40	901.00
855.64	886.00
855.89	881.00
856.14	890.00
856.39	878.00
856.63	854.00
856.88	869.00
857.13	866.00
857.37	863.00
857.62	835.00
857.87	849.00
858.12	879.00
858.36	906.00
858.61	833.00
858.86	886.00
859.10	888.00
859.35	905.00
859.60	857.00
859.85	860.00
860.09	870.00
860.34	904.00
860.59	882.00
860.83	875.00
861.08	862.00
861.33	916.00
861.58	870.00
861.82	878.00
862.07	889.00
862.32	904.00
862.56	860.00
862.81	881.00
863.06	882.00
863.30	887.00
863.55	875.00
863.80	885.00
864.05	891.00
864.29	883.00
864.54	875.00
864.79	885.00
865.03	885.00
865.28	914.00
865.53	879.00
865.77	863.00
866.02	895.00
866.27	912.00
866.51	878.00
866.76	852.00
867.01	853.00
867.26	899.00
867.50	864.00
867.75	853.00
868.00	899.00
868.24	906.00
868.49	864.00
868.74	877.00
868.98	877.00
869.23	893.00
869.48	886.00
869.72	889.00
869.97	876.00
870.22	914.00
870.46	884.00
870.71	891.00
870.96	893.00
871.20	910.00
871.45	853.00
871.70	878.00
871.94	906.00
872.19	897.00
872.44	886.00
872.68	876.00
872.93	880.00
873.18	911.00
873.42	874.00
873.67	881.00
873.92	915.00
874.16	891.00
874.41	877.00
874.66	884.00
874.90	897.00
875.15	927.00
875.40	903.00
875.64	880.00
875.89	897.00
876.14	900.00
876.38	869.00
876.63	872.00
876.88	885.00
877.12	888.00
877.37	840.00
877.62	881.00
877.86	885.00
878.11	907.00
878.36	855.00
878.60	886.00
878.85	881.00
879.09	910.00
879.34	880.00
879.59	898.00
879.83	923.00
880.08	923.00
880.33	890.00
880.57	891.00
880.82	898.00
881.07	909.00
881.31	895.00
881.56	890.00
881.80	884.00
882.05	894.00
882.30	846.00
882.54	877.00
882.79	909.00
883.04	939.00
883.28	894.00
883.53	880.00
883.77	893.00
884.02	913.00
884.27	865.00
884.51	867.00
884.76	858.00
885.01	909.00
885.25	848.00
885.50	869.00
885.74	871.00
885.99	913.00
886.24	885.00
886.48	873.00
886.73	900.00
886.98	928.00
887.22	889.00
887.47	895.00
887.71	902.00
887.96	896.00
888.21	880.00
888.45	865.00
888.70	870.00
888.94	901.00
889.19	834.00
889.44	861.00
889.68	879.00
889.93	913.00
890.17	856.00
890.42	864.00
890.67	893.00
890.91	983.00
891.16	875.00
891.40	849.00
891.65	878.00
891.90	924.00
892.14	833.00
892.39	876.00
892.63	897.00
892.88	918.00
893.13	887.00
893.37	866.00
893.62	864.00
893.86	906.00
894.11	868.00
894.36	880.00
894.60	865.00
894.85	882.00
895.09	868.00
895.34	909.00
895.59	886.00
895.83	891.00
896.08	852.00
896.32	856.00
896.57	882.00
896.81	894.00
897.06	848.00
897.31	865.00
897.55	894.00
897.80	880.00
898.04	836.00
898.29	860.00
898.53	877.00
898.78	901.00
899.03	885.00
899.27	878.00
899.52	900.00
899.76	933.00
900.01	863.00
900.25	876.00
900.50	893.00
900.75	904.00
900.99	892.00
901.24	941.00
901.48	898.00
901.73	894.00
901.97	861.00
902.22	900.00
902.47	904.00
902.71	891.00
902.96	847.00
903.20	872.00
903.45	908.00
903.69	895.00
903.94	893.00
904.18	856.00
904.43	880.00
904.68	891.00
904.92	847.00
905.17	898.00
905.41	913.00
905.66	925.00
905.90	903.00
906.15	881.00
906.39	886.00
906.64	885.00
906.88	858.00
907.13	861.00
907.38	896.00
907.62	908.00
907.87	863.00
908.11	894.00
908.36	874.00
908.60	880.00
908.85	831.00
909.09	870.00
909.34	876.00
909.58	886.00
909.83	853.00
910.07	864.00
910.32	925.00
910.56	933.00
910.81	856.00
911.06	885.00
911.30	907.00
911.55	881.00
911.79	863.00
912.04	867.00
912.28	859.00
912.53	901.00
912.77	880.00
913.02	880.00
913.26	888.00
913.51	890.00
913.75	872.00
914.00	874.00
914.24	897.00
914.49	906.00
914.73	863.00
914.98	904.00
915.22	897.00
915.47	897.00
915.71	866.00
915.96	889.00
916.20	890.00
916.45	871.00
916.69	859.00
916.94	873.00
917.18	894.00
917.43	882.00
917.67	840.00
917.92	854.00
918.16	906.00
918.41	908.00
918.65	844.00
918.90	854.00
919.14	844.00
919.39	872.00
919.63	863.00
919.88	866.00
920.12	900.00
920.37	898.00
920.61	856.00
920.86	890.00
921.10	896.00
921.35	879.00
921.59	856.00
921.84	889.00
922.08	908.00
922.33	910.00
922.57	856.00
922.82	860.00
923.06	890.00
923.31	906.00
923.55	850.00
923.80	870.00
924.04	862.00
924.29	885.00
924.53	855.00
924.78	890.00
925.02	872.00
925.27	889.00
925.51	878.00
925.76	900.00
926.00	897.00
926.25	884.00
926.49	876.00
926.73	897.00
926.98	893.00
927.22	917.00
927.47	900.00
927.71	887.00
927.96	901.00
928.20	890.00
928.45	886.00
928.69	918.00
928.94	902.00
929.18	879.00
929.43	901.00
929.67	899.00
929.91	877.00
930.16	890.00
930.40	850.00
930.65	857.00
930.89	888.00
931.14	922.00
931.38	870.00
931.63	893.00
931.87	901.00
932.12	903.00
932.36	854.00
932.60	880.00
932.85	890.00
933.09	859.00
933.34	836.00
933.58	901.00
933.83	869.00
934.07	887.00
934.32	885.00
934.56	906.00
934.80	931.00
935.05	934.00
935.29	885.00
935.54	896.00
935.78	899.00
936.03	902.00
936.27	845.00
936.52	867.00
936.76	882.00
937.00	901.00
937.25	875.00
937.49	890.00
937.74	891.00
937.98	899.00
938.23	855.00
938.47	868.00
938.71	893.00
938.96	889.00
939.20	858.00
939.45	862.00
939.69	887.00
939.94	901.00
940.18	840.00
940.42	881.00
940.67	897.00
940.91	889.00
941.16	869.00
941.40	856.00
941.64	869.00
941.89	898.00
942.13	854.00
942.38	900.00
942.62	967.00
942.87	930.00
943.11	894.00
943.35	870.00
943.60	890.00
943.84	925.00
944.09	891.00
944.33	900.00
944.57	918.00
944.82	875.00
945.06	857.00
945.31	884.00
945.55	887.00
945.79	913.00
946.04	857.00
946.28	868.00
946.53	889.00
946.77	899.00
947.01	837.00
947.26	894.00
947.50	895.00
947.75	905.00
947.99	886.00
948.23	889.00
948.48	885.00
948.72	891.00
948.97	876.00
949.21	871.00
949.45	878.00
949.70	933.00
949.94	869.00
950.18	884.00
950.43	883.00
950.67	901.00
950.92	870.00
951.16	868.00
951.40	888.00
951.65	897.00
951.89	871.00
952.13	892.00
952.38	909.00
952.62	892.00
952.87	865.00
953.11	911.00
953.35	921.00
953.60	904.00
953.84	818.00
954.08	846.00
954.33	896.00
954.57	906.00
954.82	900.00
955.06	878.00
955.30	884.00
955.55	885.00
955.79	872.00
956.03	884.00
956.28	877.00
956.52	890.00
956.76	889.00
957.01	896.00
957.25	883.00
957.50	896.00
957.74	853.00
957.98	860.00
958.23	905.00
958.47	892.00
958.71	884.00
958.96	893.00
959.20	918.00
959.44	886.00
959.69	865.00
959.93	900.00
960.17	892.00
960.42	895.00
960.66	888.00
960.90	900.00
961.15	885.00
961.39	893.00
961.64	855.00
961.88	855.00
962.12	894.00
962.37	903.00
962.61	874.00
962.85	870.00
963.10	892.00
963.34	885.00
963.58	862.00
963.83	870.00
964.07	881.00
964.31	882.00
964.56	883.00
964.80	866.00
965.04	874.00
965.29	892.00
965.53	856.00
965.77	868.00
966.02	840.00
966.26	874.00
966.50	857.00
966.74	889.00
966.99	921.00
967.23	899.00
967.47	876.00
967.72	881.00
967.96	886.00
968.20	884.00
968.45	855.00
968.69	864.00
968.93	875.00
969.18	885.00
969.42	893.00
969.66	892.00
969.91	880.00
970.15	913.00
970.39	866.00
970.64	881.00
970.88	885.00
971.12	896.00
971.36	878.00
971.61	864.00
971.85	877.00
972.09	887.00
972.34	861.00
972.58	884.00
972.82	900.00
973.07	924.00
973.31	857.00
973.55	877.00
973.79	911.00
974.04	934.00
974.28	896.00
974.52	885.00
974.77	889.00
975.01	915.00
975.25	865.00
975.50	878.00
975.74	896.00
975.98	902.00
976.22	872.00
976.47	865.00
976.71	871.00
976.95	906.00
977.20	892.00
977.44	885.00
977.68	896.00
977.92	907.00
978.17	869.00
978.41	878.00
978.65	889.00
978.90	883.00
979.14	886.00
979.38	888.00
979.62	886.00
979.87	880.00
980.11	845.00
980.35	875.00
980.59	894.00
980.84	907.00
981.08	858.00
981.32	867.00
981.57	876.00
981.81	886.00
982.05	871.00
982.29	865.00
982.54	880.00
982.78	901.00
983.02	839.00
983.26	875.00
983.51	909.00
983.75	911.00
983.99	846.00
984.23	892.00
984.48	889.00
984.72	918.00
984.96	871.00
985.20	869.00
985.45	925.00
985.69	898.00
985.93	868.00
986.17	903.00
986.42	893.00
986.66	890.00
986.90	830.00
987.14	861.00
987.39	871.00
987.63	874.00
987.87	854.00
988.11	863.00
988.36	894.00
988.60	914.00
988.84	898.00
989.08	856.00
989.33	912.00
989.57	908.00
989.81	843.00
990.05	851.00
990.30	861.00
990.54	853.00
990.78	852.00
991.02	870.00
991.27	892.00
991.51	913.00
991.75	872.00
991.99	899.00
992.23	874.00
992.48	858.00
992.72	858.00
992.96	858.00
993.20	868.00
993.45	870.00
993.69	882.00
993.93	857.00
994.17	892.00
994.41	881.00
994.66	842.00
994.90	887.00
995.14	904.00
995.38	897.00
995.63	872.00
995.87	865.00
996.11	913.00
996.35	899.00
996.59	844.00
996.84	865.00
997.08	898.00
997.32	889.00
997.56	862.00
997.80	859.00
998.05	861.00
998.29	852.00
998.53	851.00
998.77	880.00
999.01	893.00
999.26	900.00
999.50	876.00
999.74	860.00
999.98	878.00
1000.22	890.00
1000.47	845.00
1000.71	852.00
1000.95	892.00
1001.19	893.00
1001.43	870.00
1001.68	892.00
1001.92	884.00
1002.16	873.00
1002.40	839.00
1002.64	873.00
1002.89	885.00
1003.13	890.00
1003.37	876.00
1003.61	873.00
1003.85	888.00
1004.10	882.00
1004.34	866.00
1004.58	865.00
1004.82	889.00
1005.06	890.00
1005.30	873.00
1005.55	883.00
1005.79	892.00
1006.03	891.00
1006.27	868.00
1006.51	874.00
1006.76	875.00
1007.00	897.00
1007.24	869.00
1007.48	881.00
1007.72	910.00
1007.96	900.00
1008.21	873.00
1008.45	906.00
1008.69	893.00
1008.93	908.00
1009.17	876.00
1009.41	897.00
1009.66	921.00
1009.90	900.00
1010.14	859.00
1010.38	884.00
1010.62	880.00
1010.86	902.00
1011.10	870.00
1011.35	873.00
1011.59	871.00
1011.83	859.00
1012.07	843.00
1012.31	876.00
1012.55	886.00
1012.80	897.00
1013.04	872.00
1013.28	894.00
1013.52	902.00
1013.76	906.00
1014.00	864.00
1014.24	876.00
1014.49	900.00
1014.73	921.00
1014.97	900.00
1015.21	882.00
1015.45	920.00
1015.69	897.00
1015.93	871.00
1016.18	865.00
1016.42	907.00
1016.66	939.00
1016.90	866.00
1017.14	859.00
1017.38	861.00
1017.62	881.00
1017.87	880.00
1018.11	876.00
1018.35	886.00
1018.59	889.00
1018.83	829.00
1019.07	880.00
1019.31	907.00
1019.55	904.00
1019.80	877.00
1020.04	890.00
1020.28	885.00
1020.52	901.00
1020.76	853.00
1021.00	845.00
1021.24	873.00
1021.48	851.00
1021.73	873.00
1021.97	891.00
1022.21	876.00
1022.45	899.00
1022.69	881.00
1022.93	859.00
1023.17	902.00
1023.41	936.00
1023.65	880.00
1023.90	896.00
1024.14	901.00
1024.38	863.00
1024.62	846.00
1024.86	884.00
1025.10	903.00
1025.34	875.00
1025.58	854.00
1025.82	868.00
1026.07	898.00
1026.31	886.00
1026.55	849.00
1026.79	868.00
1027.03	901.00
1027.27	908.00
1027.51	840.00
1027.75	849.00
1027.99	869.00
1028.23	909.00
1028.47	897.00
1028.72	866.00
1028.96	896.00
1029.20	913.00
1029.44	885.00
1029.68	881.00
1029.92	898.00
1030.16	900.00
1030.40	852.00
1030.64	865.00
1030.88	869.00
1031.12	863.00
1031.37	840.00
1031.61	888.00
1031.85	906.00
1032.09	906.00
1032.33	878.00
1032.57	923.00
1032.81	886.00
1033.05	909.00
1033.29	882.00
1033.53	877.00
1033.77	932.00
1034.01	922.00
1034.25	882.00
1034.50	882.00
1034.74	880.00
1034.98	899.00
1035.22	878.00
1035.46	883.00
1035.70	905.00
1035.94	910.00
1036.18	873.00
1036.42	864.00
1036.66	866.00
1036.90	877.00
1037.14	838.00
1037.38	862.00
1037.62	890.00
1037.86	871.00
1038.10	873.00
1038.35	869.00
1038.59	892.00
1038.83	913.00
1039.07	892.00
1039.31	882.00
1039.55	870.00
1039.79	878.00
1040.03	846.00
1040.27	849.00
1040.51	901.00
1040.75	918.00
1040.99	894.00
1041.23	897.00
1041.47	888.00
1041.71	913.00
1041.95	883.00
1042.19	876.00
1042.43	932.00
1042.67	939.00
1042.91	887.00
1043.15	868.00
1043.39	896.00
1043.64	896.00
1043.88	859.00
1044.12	888.00
1044.36	951.00
1044.60	919.00
1044.84	878.00
1045.08	878.00
1045.32	879.00
1045.56	884.00
1045.80	878.00
1046.04	870.00
1046.28	907.00
1046.52	902.00
1046.76	855.00
1047.00	876.00
1047.24	914.00
1047.48	906.00
1047.72	885.00
1047.96	870.00
1048.20	903.00
1048.44	897.00
1048.68	857.00
1048.92	875.00
1049.16	890.00
1049.40	896.00
1049.64	877.00
1049.88	902.00
1050.12	900.00
1050.36	922.00
1050.60	872.00
1050.84	870.00
1051.08	880.00
1051.32	882.00
1051.56	882.00
1051.80	860.00
1052.04	882.00
1052.28	920.00
1052.52	852.00
1052.76	849.00
1053.00	884.00
1053.24	889.00
1053.48	873.00
1053.72	870.00
1053.96	869.00
1054.20	878.00
1054.44	869.00
1054.68	896.00
1054.92	913.00
1055.16	877.00
1055.40	869.00
1055.64	887.00
1055.88	912.00
1056.12	927.00
1056.36	853.00
1056.60	881.00
1056.84	922.00
1057.08	905.00
1057.32	867.00
1057.56	871.00
1057.80	884.00
1058.04	917.00
1058.28	870.00
1058.52	886.00
1058.76	917.00
1059.00	913.00
1059.24	850.00
1059.48	853.00
1059.72	902.00
1059.96	877.00
1060.20	888.00
1060.44	918.00
1060.68	916.00
1060.92	881.00
1061.16	850.00
1061.40	873.00
1061.64	889.00
1061.88	883.00
1062.11	857.00
1062.35	869.00
1062.59	877.00
1062.83	910.00
1063.07	865.00
1063.31	863.00
1063.55	877.00
1063.79	898.00
1064.03	890.00
1064.27	874.00
1064.51	890.00
1064.75	902.00
1064.99	882.00
1065.23	885.00
1065.47	885.00
1065.71	913.00
1065.95	889.00
1066.19	879.00
1066.43	892.00
1066.67	910.00
1066.91	886.00
1067.15	867.00
1067.38	888.00
1067.62	897.00
1067.86	868.00
1068.10	901.00
1068.34	943.00
1068.58	926.00
1068.82	876.00
1069.06	834.00
1069.30	887.00
1069.54	920.00
1069.78	898.00
1070.02	882.00
1070.26	912.00
1070.50	929.00
1070.74	885.00
1070.98	907.00
1071.21	906.00
1071.45	891.00
1071.69	850.00
1071.93	872.00
1072.17	907.00
1072.41	903.00
1072.65	901.00
1072.89	897.00
1073.13	889.00
1073.37	877.00
1073.61	872.00
1073.85	888.00
1074.09	868.00
1074.32	873.00
1074.56	869.00
1074.80	948.00
1075.04	1174.00
1075.28	1000.00
1075.52	885.00
1075.76	881.00
1076.00	896.00
1076.24	907.00
1076.48	871.00
1076.72	874.00
1076.96	918.00
1077.19	918.00
1077.43	858.00
1077.67	881.00
1077.91	892.00
1078.15	869.00
1078.39	864.00
1078.63	858.00
1078.87	900.00
1079.11	915.00
1079.35	873.00
1079.58	869.00
1079.82	893.00
1080.06	882.00
1080.30	852.00
1080.54	902.00
1080.78	930.00
1081.02	894.00
1081.26	874.00
1081.50	901.00
1081.74	899.00
1081.97	922.00
1082.21	875.00
1082.45	884.00
1082.69	894.00
1082.93	877.00
1083.17	882.00
1083.41	879.00
1083.65	924.00
1083.88	917.00
1084.12	881.00
1084.36	890.00
1084.60	896.00
1084.84	905.00
1085.08	869.00
1085.32	862.00
1085.56	921.00
1085.80	907.00
1086.03	852.00
1086.27	849.00
1086.51	894.00
1086.75	909.00
1086.99	861.00
1087.23	846.00
1087.47	884.00
1087.70	880.00
1087.94	856.00
1088.18	906.00
1088.42	935.00
1088.66	911.00
1088.90	845.00
1089.14	871.00
1089.38	884.00
1089.61	904.00
1089.85	880.00
1090.09	848.00
1090.33	917.00
1090.57	920.00
1090.81	827.00
1091.05	878.00
1091.28	913.00
1091.52	906.00
1091.76	864.00
1092.00	880.00
1092.24	903.00
1092.48	919.00
1092.71	865.00
1092.95	891.00
1093.19	903.00
1093.43	895.00
1093.67	852.00
1093.91	898.00
1094.15	902.00
1094.38	891.00
1094.62	860.00
1094.86	877.00
1095.10	880.00
1095.34	886.00
1095.58	875.00
1095.81	891.00
1096.05	925.00
1096.29	924.00
1096.53	852.00
1096.77	869.00
1097.01	876.00
1097.24	902.00
1097.48	864.00
1097.72	888.00
1097.96	893.00
1098.20	915.00
1098.44	857.00
1098.67	854.00
1098.91	890.00
1099.15	892.00
1099.39	849.00
1099.63	867.00
1099.86	885.00
1100.10	884.00
1100.34	873.00
1100.58	864.00
1100.82	883.00
1101.06	890.00
1101.29	857.00
1101.53	887.00
1101.77	889.00
1102.01	878.00
1102.25	858.00
1102.48	887.00
1102.72	926.00
1102.96	906.00
1103.20	840.00
1103.44	872.00
1103.67	891.00
1103.91	897.00
1104.15	852.00
1104.39	859.00
1104.63	893.00
1104.86	866.00
1105.10	844.00
1105.34	887.00
1105.58	897.00
1105.82	898.00
1106.05	888.00
1106.29	884.00
1106.53	879.00
1106.77	911.00
1107.01	865.00
1107.24	904.00
1107.48	933.00
1107.72	893.00
1107.96	844.00
1108.20	863.00
1108.43	889.00
1108.67	905.00
1108.91	880.00
1109.15	869.00
1109.39	888.00
1109.62	868.00
1109.86	836.00
1110.10	856.00
1110.34	921.00
1110.57	952.00
1110.81	868.00
1111.05	864.00
1111.29	915.00
1111.53	951.00
1111.76	871.00
1112.00	910.00
1112.24	920.00
1112.48	887.00
1112.71	842.00
1112.95	855.00
1113.19	915.00
1113.43	892.00
1113.66	854.00
1113.90	894.00
1114.14	901.00
1114.38	884.00
1114.62	858.00
1114.85	892.00
1115.09	904.00
1115.33	948.00
1115.57	876.00
1115.80	864.00
1116.04	890.00
1116.28	893.00
1116.52	869.00
1116.75	868.00
1116.99	917.00
1117.23	916.00
1117.47	894.00
1117.70	924.00
1117.94	973.00
1118.18	903.00
1118.42	880.00
1118.65	898.00
1118.89	908.00
1119.13	898.00
1119.37	846.00
1119.60	877.00
1119.84	893.00
>>>>>End Processed Spectral Data<<<<<
