SpectraSuite Data File
++++++++++++++++++++++++++++++++++++
Date: Fri Dec 06 16:18:17 CET 2024
User: student
Dark Spectrum Present: Yes
Reference Spectrum Present: Yes
Number of Sampled Component Spectra: 1
Spectrometers: HR4C155
Integration Time (usec): 100000 (HR4C155)
Spectra Averaged: 1 (HR4C155)
Boxcar Smoothing: 0 (HR4C155)
Correct for Electrical Dark: No (HR4C155)
Strobe/Lamp Enabled: No (HR4C155)
Correct for Detector Non-linearity: No (HR4C155)
Correct for Stray Light: No (HR4C155)
Number of Pixels in Processed Spectrum: 3648
>>>>>Begin Processed Spectral Data<<<<<
195.39	719.00
195.66	719.00
195.93	719.00
196.20	666.00
196.46	714.00
196.73	835.00
197.00	835.00
197.27	826.00
197.54	875.00
197.81	866.00
198.08	866.00
198.35	889.00
198.61	900.00
198.88	862.00
199.15	857.00
199.42	884.00
199.69	897.00
199.96	866.00
200.23	878.00
200.49	889.00
200.76	903.00
201.03	888.00
201.30	879.00
201.57	937.00
201.84	950.00
202.11	894.00
202.38	923.00
202.64	929.00
202.91	930.00
203.18	882.00
203.45	957.00
203.72	1022.00
203.99	944.00
204.25	938.00
204.52	940.00
204.79	947.00
205.06	935.00
205.33	881.00
205.60	906.00
205.87	948.00
206.13	931.00
206.40	915.00
206.67	910.00
206.94	929.00
207.21	940.00
207.48	905.00
207.75	902.00
208.01	941.00
208.28	946.00
208.55	901.00
208.82	923.00
209.09	914.00
209.36	951.00
209.62	920.00
209.89	931.00
210.16	946.00
210.43	977.00
210.70	892.00
210.97	911.00
211.23	956.00
211.50	979.00
211.77	912.00
212.04	932.00
212.31	939.00
212.58	958.00
212.84	921.00
213.11	936.00
213.38	904.00
213.65	907.00
213.92	899.00
214.18	932.00
214.45	970.00
214.72	945.00
214.99	887.00
215.26	904.00
215.53	902.00
215.79	945.00
216.06	941.00
216.33	930.00
216.60	907.00
216.87	952.00
217.13	891.00
217.40	906.00
217.67	940.00
217.94	957.00
218.21	896.00
218.48	940.00
218.74	986.00
219.01	941.00
219.28	873.00
219.55	884.00
219.82	916.00
220.08	954.00
220.35	908.00
220.62	894.00
220.89	961.00
221.16	987.00
221.42	928.00
221.69	932.00
221.96	950.00
222.23	946.00
222.50	937.00
222.76	947.00
223.03	926.00
223.30	914.00
223.57	897.00
223.84	881.00
224.10	908.00
224.37	933.00
224.64	891.00
224.91	898.00
225.18	957.00
225.44	957.00
225.71	913.00
225.98	924.00
226.25	961.00
226.51	950.00
226.78	901.00
227.05	920.00
227.32	935.00
227.59	931.00
227.85	919.00
228.12	918.00
228.39	962.00
228.66	957.00
228.92	968.00
229.19	941.00
229.46	947.00
229.73	928.00
230.00	901.00
230.26	935.00
230.53	959.00
230.80	948.00
231.07	890.00
231.33	884.00
231.60	940.00
231.87	960.00
232.14	898.00
232.41	946.00
232.67	943.00
232.94	947.00
233.21	912.00
233.48	913.00
233.74	925.00
234.01	907.00
234.28	876.00
234.55	898.00
234.81	903.00
235.08	956.00
235.35	900.00
235.62	906.00
235.88	913.00
236.15	937.00
236.42	929.00
236.69	932.00
236.95	949.00
237.22	914.00
237.49	894.00
237.76	908.00
238.02	949.00
238.29	973.00
238.56	910.00
238.83	914.00
239.09	937.00
239.36	950.00
239.63	909.00
239.90	928.00
240.16	956.00
240.43	984.00
240.70	911.00
240.97	923.00
241.23	911.00
241.50	937.00
241.77	900.00
242.04	907.00
242.30	895.00
242.57	919.00
242.84	893.00
243.11	913.00
243.37	884.00
243.64	958.00
243.91	902.00
244.18	913.00
244.44	900.00
244.71	913.00
244.98	908.00
245.24	902.00
245.51	921.00
245.78	963.00
246.05	898.00
246.31	910.00
246.58	950.00
246.85	913.00
247.12	900.00
247.38	925.00
247.65	946.00
247.92	951.00
248.18	908.00
248.45	906.00
248.72	936.00
248.99	943.00
249.25	894.00
249.52	898.00
249.79	938.00
250.05	940.00
250.32	903.00
250.59	920.00
250.86	918.00
251.12	934.00
251.39	884.00
251.66	906.00
251.92	941.00
252.19	949.00
252.46	899.00
252.73	936.00
252.99	960.00
253.26	962.00
253.53	904.00
253.79	940.00
254.06	928.00
254.33	894.00
254.60	876.00
254.86	894.00
255.13	945.00
255.40	963.00
255.66	913.00
255.93	933.00
256.20	951.00
256.46	956.00
256.73	922.00
257.00	927.00
257.26	938.00
257.53	950.00
257.80	926.00
258.07	933.00
258.33	983.00
258.60	955.00
258.87	897.00
259.13	922.00
259.40	909.00
259.67	947.00
259.93	908.00
260.20	943.00
260.47	955.00
260.73	917.00
261.00	892.00
261.27	921.00
261.53	944.00
261.80	938.00
262.07	886.00
262.34	912.00
262.60	883.00
262.87	917.00
263.14	898.00
263.40	944.00
263.67	920.00
263.94	918.00
264.20	913.00
264.47	886.00
264.74	889.00
265.00	915.00
265.27	892.00
265.54	910.00
265.80	926.00
266.07	948.00
266.34	898.00
266.60	901.00
266.87	924.00
267.14	954.00
267.40	901.00
267.67	881.00
267.94	915.00
268.20	906.00
268.47	874.00
268.74	881.00
269.00	916.00
269.27	923.00
269.54	859.00
269.80	887.00
270.07	937.00
270.33	909.00
270.60	895.00
270.87	933.00
271.13	911.00
271.40	930.00
271.67	866.00
271.93	873.00
272.20	930.00
272.47	908.00
272.73	876.00
273.00	910.00
273.27	917.00
273.53	962.00
273.80	912.00
274.07	905.00
274.33	927.00
274.60	945.00
274.86	904.00
275.13	918.00
275.40	903.00
275.66	938.00
275.93	906.00
276.20	898.00
276.46	905.00
276.73	897.00
277.00	898.00
277.26	921.00
277.53	957.00
277.79	913.00
278.06	889.00
278.33	942.00
278.59	939.00
278.86	901.00
279.13	901.00
279.39	914.00
279.66	955.00
279.93	956.00
280.19	892.00
280.46	910.00
280.72	905.00
280.99	931.00
281.26	901.00
281.52	903.00
281.79	926.00
282.05	927.00
282.32	902.00
282.59	907.00
282.85	956.00
283.12	937.00
283.39	900.00
283.65	920.00
283.92	938.00
284.18	939.00
284.45	903.00
284.72	912.00
284.98	913.00
285.25	908.00
285.51	921.00
285.78	922.00
286.05	921.00
286.31	920.00
286.58	878.00
286.84	890.00
287.11	918.00
287.38	937.00
287.64	915.00
287.91	890.00
288.17	912.00
288.44	923.00
288.71	880.00
288.97	908.00
289.24	938.00
289.50	920.00
289.77	904.00
290.04	873.00
290.30	881.00
290.57	937.00
290.83	887.00
291.10	907.00
291.37	922.00
291.63	906.00
291.90	930.00
292.16	907.00
292.43	917.00
292.70	895.00
292.96	861.00
293.23	887.00
293.49	901.00
293.76	922.00
294.02	903.00
294.29	905.00
294.56	921.00
294.82	918.00
295.09	901.00
295.35	892.00
295.62	949.00
295.89	957.00
296.15	887.00
296.42	885.00
296.68	910.00
296.95	916.00
297.21	918.00
297.48	904.00
297.75	921.00
298.01	955.00
298.28	904.00
298.54	907.00
298.81	945.00
299.07	928.00
299.34	881.00
299.61	908.00
299.87	961.00
300.14	930.00
300.40	923.00
300.67	909.00
300.93	934.00
301.20	956.00
301.46	887.00
301.73	905.00
302.00	936.00
302.26	914.00
302.53	918.00
302.79	905.00
303.06	919.00
303.32	954.00
303.59	883.00
303.85	885.00
304.12	904.00
304.39	920.00
304.65	891.00
304.92	890.00
305.18	914.00
305.45	946.00
305.71	901.00
305.98	910.00
306.24	908.00
306.51	904.00
306.77	904.00
307.04	916.00
307.31	933.00
307.57	934.00
307.84	868.00
308.10	896.00
308.37	901.00
308.63	911.00
308.90	876.00
309.16	892.00
309.43	942.00
309.69	916.00
309.96	911.00
310.22	901.00
310.49	925.00
310.76	927.00
311.02	878.00
311.29	884.00
311.55	918.00
311.82	922.00
312.08	901.00
312.35	913.00
312.61	938.00
312.88	917.00
313.14	865.00
313.41	876.00
313.67	884.00
313.94	937.00
314.20	912.00
314.47	899.00
314.73	899.00
315.00	903.00
315.26	877.00
315.53	925.00
315.79	920.00
316.06	917.00
316.32	898.00
316.59	924.00
316.85	923.00
317.12	949.00
317.39	872.00
317.65	879.00
317.92	913.00
318.18	912.00
318.45	897.00
318.71	940.00
318.98	957.00
319.24	927.00
319.51	901.00
319.77	908.00
320.04	909.00
320.30	920.00
320.57	882.00
320.83	905.00
321.10	891.00
321.36	913.00
321.63	878.00
321.89	893.00
322.16	942.00
322.42	933.00
322.69	882.00
322.95	886.00
323.22	915.00
323.48	935.00
323.75	892.00
324.01	901.00
324.28	920.00
324.54	928.00
324.80	897.00
325.07	923.00
325.33	937.00
325.60	902.00
325.86	877.00
326.13	909.00
326.39	916.00
326.66	893.00
326.92	838.00
327.19	885.00
327.45	967.00
327.72	957.00
327.98	897.00
328.25	887.00
328.51	931.00
328.78	920.00
329.04	878.00
329.31	907.00
329.57	913.00
329.84	908.00
330.10	888.00
330.37	903.00
330.63	926.00
330.89	962.00
331.16	887.00
331.42	897.00
331.69	936.00
331.95	935.00
332.22	918.00
332.48	933.00
332.75	916.00
333.01	886.00
333.28	875.00
333.54	887.00
333.81	917.00
334.07	946.00
334.34	916.00
334.60	923.00
334.86	963.00
335.13	966.00
335.39	911.00
335.66	902.00
335.92	938.00
336.19	944.00
336.45	869.00
336.72	888.00
336.98	909.00
337.24	918.00
337.51	878.00
337.77	884.00
338.04	911.00
338.30	923.00
338.57	890.00
338.83	902.00
339.10	932.00
339.36	942.00
339.63	893.00
339.89	888.00
340.15	920.00
340.42	936.00
340.68	926.00
340.95	917.00
341.21	918.00
341.48	913.00
341.74	881.00
342.00	877.00
342.27	934.00
342.53	937.00
342.80	895.00
343.06	913.00
343.33	912.00
343.59	938.00
343.85	886.00
344.12	906.00
344.38	969.00
344.65	958.00
344.91	896.00
345.18	907.00
345.44	911.00
345.70	910.00
345.97	855.00
346.23	894.00
346.50	921.00
346.76	933.00
347.03	927.00
347.29	907.00
347.55	905.00
347.82	909.00
348.08	878.00
348.35	895.00
348.61	973.00
348.87	951.00
349.14	899.00
349.40	884.00
349.67	907.00
349.93	898.00
350.20	893.00
350.46	905.00
350.72	933.00
350.99	913.00
351.25	889.00
351.52	904.00
351.78	904.00
352.04	920.00
352.31	905.00
352.57	913.00
352.84	907.00
353.10	910.00
353.36	905.00
353.63	886.00
353.89	919.00
354.16	935.00
354.42	916.00
354.68	907.00
354.95	951.00
355.21	935.00
355.48	887.00
355.74	917.00
356.00	950.00
356.27	963.00
356.53	892.00
356.80	901.00
357.06	914.00
357.32	911.00
357.59	907.00
357.85	926.00
358.11	971.00
358.38	942.00
358.64	889.00
358.91	918.00
359.17	919.00
359.43	945.00
359.70	916.00
359.96	920.00
360.22	943.00
360.49	915.00
360.75	891.00
361.02	876.00
361.28	884.00
361.54	916.00
361.81	873.00
362.07	907.00
362.33	913.00
362.60	920.00
362.86	908.00
363.13	929.00
363.39	958.00
363.65	957.00
363.92	870.00
364.18	868.00
364.44	913.00
364.71	912.00
364.97	896.00
365.24	907.00
365.50	925.00
365.76	948.00
366.03	913.00
366.29	921.00
366.55	941.00
366.82	929.00
367.08	872.00
367.34	916.00
367.61	949.00
367.87	929.00
368.13	907.00
368.40	902.00
368.66	946.00
368.93	944.00
369.19	870.00
369.45	884.00
369.72	922.00
369.98	907.00
370.24	885.00
370.51	886.00
370.77	936.00
371.03	940.00
371.30	903.00
371.56	921.00
371.82	943.00
372.09	916.00
372.35	911.00
372.61	908.00
372.88	908.00
373.14	934.00
373.40	900.00
373.67	897.00
373.93	917.00
374.19	932.00
374.46	888.00
374.72	875.00
374.98	920.00
375.25	939.00
375.51	919.00
375.77	928.00
376.04	940.00
376.30	944.00
376.56	877.00
376.83	897.00
377.09	934.00
377.35	931.00
377.62	903.00
377.88	886.00
378.14	895.00
378.41	918.00
378.67	891.00
378.93	880.00
379.20	927.00
379.46	889.00
379.72	890.00
379.99	895.00
380.25	891.00
380.51	882.00
380.77	883.00
381.04	905.00
381.30	931.00
381.56	943.00
381.83	915.00
382.09	902.00
382.35	895.00
382.62	938.00
382.88	929.00
383.14	913.00
383.41	922.00
383.67	917.00
383.93	917.00
384.20	916.00
384.46	929.00
384.72	949.00
384.98	887.00
385.25	908.00
385.51	930.00
385.77	921.00
386.04	880.00
386.30	855.00
386.56	932.00
386.82	977.00
387.09	910.00
387.35	927.00
387.61	996.00
387.88	940.00
388.14	912.00
388.40	914.00
388.67	910.00
388.93	907.00
389.19	886.00
389.45	885.00
389.72	910.00
389.98	945.00
390.24	903.00
390.51	891.00
390.77	930.00
391.03	940.00
391.29	885.00
391.56	895.00
391.82	933.00
392.08	942.00
392.35	893.00
392.61	891.00
392.87	927.00
393.13	942.00
393.40	895.00
393.66	888.00
393.92	911.00
394.18	920.00
394.45	870.00
394.71	875.00
394.97	900.00
395.24	918.00
395.50	883.00
395.76	926.00
396.02	933.00
396.29	937.00
396.55	878.00
396.81	849.00
397.07	896.00
397.34	883.00
397.60	869.00
397.86	885.00
398.12	893.00
398.39	932.00
398.65	902.00
398.91	896.00
399.17	906.00
399.44	872.00
399.70	845.00
399.96	877.00
400.22	896.00
400.49	946.00
400.75	902.00
401.01	888.00
401.27	908.00
401.54	937.00
401.80	889.00
402.06	885.00
402.32	917.00
402.59	894.00
402.85	879.00
403.11	901.00
403.37	902.00
403.64	942.00
403.90	892.00
404.16	907.00
404.42	911.00
404.69	900.00
404.95	895.00
405.21	863.00
405.47	896.00
405.74	926.00
406.00	892.00
406.26	899.00
406.52	917.00
406.79	925.00
407.05	877.00
407.31	890.00
407.57	887.00
407.83	922.00
408.10	859.00
408.36	888.00
408.62	915.00
408.88	905.00
409.15	885.00
409.41	872.00
409.67	896.00
409.93	939.00
410.20	908.00
410.46	890.00
410.72	882.00
410.98	911.00
411.24	895.00
411.51	895.00
411.77	900.00
412.03	901.00
412.29	908.00
412.55	915.00
412.82	887.00
413.08	931.00
413.34	914.00
413.60	891.00
413.87	911.00
414.13	931.00
414.39	869.00
414.65	894.00
414.91	931.00
415.18	899.00
415.44	877.00
415.70	865.00
415.96	905.00
416.22	911.00
416.49	877.00
416.75	903.00
417.01	912.00
417.27	910.00
417.53	899.00
417.80	885.00
418.06	917.00
418.32	925.00
418.58	883.00
418.84	880.00
419.11	918.00
419.37	927.00
419.63	893.00
419.89	892.00
420.15	922.00
420.42	907.00
420.68	876.00
420.94	883.00
421.20	909.00
421.46	920.00
421.72	902.00
421.99	898.00
422.25	920.00
422.51	924.00
422.77	922.00
423.03	901.00
423.30	904.00
423.56	926.00
423.82	926.00
424.08	916.00
424.34	932.00
424.60	920.00
424.87	884.00
425.13	871.00
425.39	885.00
425.65	903.00
425.91	884.00
426.18	914.00
426.44	928.00
426.70	894.00
426.96	845.00
427.22	837.00
427.48	878.00
427.75	890.00
428.01	854.00
428.27	886.00
428.53	912.00
428.79	885.00
429.05	891.00
429.32	899.00
429.58	949.00
429.84	886.00
430.10	890.00
430.36	907.00
430.62	923.00
430.88	915.00
431.15	894.00
431.41	905.00
431.67	910.00
431.93	893.00
432.19	858.00
432.45	889.00
432.72	922.00
432.98	913.00
433.24	910.00
433.50	993.00
433.76	910.00
434.02	890.00
434.28	857.00
434.55	883.00
434.81	925.00
435.07	929.00
435.33	874.00
435.59	890.00
435.85	904.00
436.11	920.00
436.38	866.00
436.64	864.00
436.90	901.00
437.16	907.00
437.42	893.00
437.68	881.00
437.94	905.00
438.21	924.00
438.47	919.00
438.73	913.00
438.99	908.00
439.25	911.00
439.51	889.00
439.77	892.00
440.03	893.00
440.30	933.00
440.56	906.00
440.82	925.00
441.08	928.00
441.34	921.00
441.60	879.00
441.86	897.00
442.12	906.00
442.39	904.00
442.65	875.00
442.91	890.00
443.17	891.00
443.43	910.00
443.69	904.00
443.95	871.00
444.21	903.00
444.47	926.00
444.74	864.00
445.00	895.00
445.26	904.00
445.52	912.00
445.78	886.00
446.04	890.00
446.30	947.00
446.56	925.00
446.82	868.00
447.09	882.00
447.35	913.00
447.61	901.00
447.87	872.00
448.13	895.00
448.39	956.00
448.65	933.00
448.91	884.00
449.17	873.00
449.43	878.00
449.70	909.00
449.96	877.00
450.22	889.00
450.48	903.00
450.74	949.00
451.00	910.00
451.26	897.00
451.52	898.00
451.78	888.00
452.04	884.00
452.31	924.00
452.57	914.00
452.83	882.00
453.09	878.00
453.35	879.00
453.61	893.00
453.87	902.00
454.13	898.00
454.39	905.00
454.65	957.00
454.91	953.00
455.17	884.00
455.44	889.00
455.70	923.00
455.96	907.00
456.22	871.00
456.48	884.00
456.74	898.00
457.00	877.00
457.26	847.00
457.52	881.00
457.78	890.00
458.04	919.00
458.30	883.00
458.56	905.00
458.82	910.00
459.09	882.00
459.35	841.00
459.61	869.00
459.87	906.00
460.13	927.00
460.39	878.00
460.65	871.00
460.91	930.00
461.17	907.00
461.43	884.00
461.69	884.00
461.95	903.00
462.21	885.00
462.47	890.00
462.73	921.00
462.99	928.00
463.26	923.00
463.52	868.00
463.78	849.00
464.04	895.00
464.30	897.00
464.56	861.00
464.82	888.00
465.08	949.00
465.34	951.00
465.60	898.00
465.86	894.00
466.12	900.00
466.38	890.00
466.64	877.00
466.90	894.00
467.16	909.00
467.42	917.00
467.68	868.00
467.94	885.00
468.20	932.00
468.46	899.00
468.72	886.00
468.98	902.00
469.25	908.00
469.51	881.00
469.77	912.00
470.03	904.00
470.29	889.00
470.55	896.00
470.81	889.00
471.07	897.00
471.33	912.00
471.59	935.00
471.85	895.00
472.11	898.00
472.37	926.00
472.63	906.00
472.89	915.00
473.15	895.00
473.41	910.00
473.67	887.00
473.93	846.00
474.19	854.00
474.45	870.00
474.71	897.00
474.97	859.00
475.23	866.00
475.49	886.00
475.75	884.00
476.01	887.00
476.27	918.00
476.53	941.00
476.79	920.00
477.05	883.00
477.31	875.00
477.57	912.00
477.83	896.00
478.09	847.00
478.35	897.00
478.61	961.00
478.87	917.00
479.13	866.00
479.39	890.00
479.65	919.00
479.91	920.00
480.17	891.00
480.43	909.00
480.69	893.00
480.95	912.00
481.21	870.00
481.47	868.00
481.73	891.00
481.99	894.00
482.25	866.00
482.51	857.00
482.77	919.00
483.03	914.00
483.29	902.00
483.55	892.00
483.81	916.00
484.07	920.00
484.33	872.00
484.59	877.00
484.85	932.00
485.11	915.00
485.37	878.00
485.63	882.00
485.89	901.00
486.15	893.00
486.41	874.00
486.67	893.00
486.93	914.00
487.19	897.00
487.45	869.00
487.71	881.00
487.97	932.00
488.23	931.00
488.49	856.00
488.75	871.00
489.01	900.00
489.27	924.00
489.53	890.00
489.79	885.00
490.05	907.00
490.31	914.00
490.57	925.00
490.83	953.00
491.08	910.00
491.34	890.00
491.60	870.00
491.86	908.00
492.12	955.00
492.38	943.00
492.64	881.00
492.90	870.00
493.16	900.00
493.42	883.00
493.68	869.00
493.94	891.00
494.20	885.00
494.46	902.00
494.72	868.00
494.98	868.00
495.24	886.00
495.50	909.00
495.76	903.00
496.02	909.00
496.28	923.00
496.54	935.00
496.80	890.00
497.05	860.00
497.31	890.00
497.57	923.00
497.83	875.00
498.09	918.00
498.35	945.00
498.61	934.00
498.87	889.00
499.13	900.00
499.39	909.00
499.65	902.00
499.91	901.00
500.17	887.00
500.43	966.00
500.69	996.00
500.95	899.00
501.20	920.00
501.46	921.00
501.72	919.00
501.98	905.00
502.24	917.00
502.50	956.00
502.76	912.00
503.02	889.00
503.28	875.00
503.54	935.00
503.80	957.00
504.06	929.00
504.32	926.00
504.58	916.00
504.83	904.00
505.09	873.00
505.35	893.00
505.61	888.00
505.87	899.00
506.13	897.00
506.39	866.00
506.65	926.00
506.91	950.00
507.17	898.00
507.43	877.00
507.68	890.00
507.94	921.00
508.20	875.00
508.46	868.00
508.72	933.00
508.98	945.00
509.24	884.00
509.50	917.00
509.76	901.00
510.02	899.00
510.28	858.00
510.53	879.00
510.79	906.00
511.05	908.00
511.31	882.00
511.57	881.00
511.83	902.00
512.09	930.00
512.35	884.00
512.61	902.00
512.87	904.00
513.12	911.00
513.38	869.00
513.64	909.00
513.90	919.00
514.16	934.00
514.42	892.00
514.68	906.00
514.94	930.00
515.20	922.00
515.45	869.00
515.71	869.00
515.97	894.00
516.23	909.00
516.49	888.00
516.75	906.00
517.01	912.00
517.27	897.00
517.53	875.00
517.78	888.00
518.04	886.00
518.30	882.00
518.56	861.00
518.82	917.00
519.08	942.00
519.34	891.00
519.60	887.00
519.85	908.00
520.11	904.00
520.37	913.00
520.63	911.00
520.89	911.00
521.15	921.00
521.41	901.00
521.66	881.00
521.92	899.00
522.18	934.00
522.44	930.00
522.70	886.00
522.96	887.00
523.22	917.00
523.48	898.00
523.73	873.00
523.99	871.00
524.25	942.00
524.51	916.00
524.77	873.00
525.03	883.00
525.29	914.00
525.54	933.00
525.80	879.00
526.06	866.00
526.32	888.00
526.58	893.00
526.84	875.00
527.09	876.00
527.35	886.00
527.61	884.00
527.87	871.00
528.13	894.00
528.39	886.00
528.65	897.00
528.90	850.00
529.16	871.00
529.42	886.00
529.68	884.00
529.94	870.00
530.20	882.00
530.45	876.00
530.71	918.00
530.97	876.00
531.23	884.00
531.49	903.00
531.75	901.00
532.00	884.00
532.26	866.00
532.52	899.00
532.78	894.00
533.04	871.00
533.30	876.00
533.55	892.00
533.81	901.00
534.07	854.00
534.33	877.00
534.59	909.00
534.85	904.00
535.10	850.00
535.36	861.00
535.62	903.00
535.88	893.00
536.14	863.00
536.39	876.00
536.65	925.00
536.91	935.00
537.17	871.00
537.43	882.00
537.69	924.00
537.94	894.00
538.20	856.00
538.46	882.00
538.72	886.00
538.98	899.00
539.23	872.00
539.49	866.00
539.75	935.00
540.01	908.00
540.27	874.00
540.52	909.00
540.78	892.00
541.04	921.00
541.30	871.00
541.56	871.00
541.81	936.00
542.07	978.00
542.33	890.00
542.59	876.00
542.85	889.00
543.10	897.00
543.36	874.00
543.62	895.00
543.88	900.00
544.14	892.00
544.39	882.00
544.65	887.00
544.91	920.00
545.17	900.00
545.43	878.00
545.68	883.00
545.94	918.00
546.20	925.00
546.46	880.00
546.71	885.00
546.97	919.00
547.23	925.00
547.49	891.00
547.75	884.00
548.00	913.00
548.26	931.00
548.52	869.00
548.78	859.00
549.03	893.00
549.29	897.00
549.55	871.00
549.81	889.00
550.07	908.00
550.32	906.00
550.58	857.00
550.84	893.00
551.10	906.00
551.35	922.00
551.61	872.00
551.87	878.00
552.13	903.00
552.39	887.00
552.64	848.00
552.90	876.00
553.16	894.00
553.42	892.00
553.67	864.00
553.93	860.00
554.19	925.00
554.45	944.00
554.70	880.00
554.96	865.00
555.22	904.00
555.48	925.00
555.73	870.00
555.99	872.00
556.25	908.00
556.51	901.00
556.76	863.00
557.02	895.00
557.28	923.00
557.54	898.00
557.79	871.00
558.05	886.00
558.31	892.00
558.57	908.00
558.82	874.00
559.08	849.00
559.34	875.00
559.60	906.00
559.85	880.00
560.11	884.00
560.37	900.00
560.63	890.00
560.88	879.00
561.14	882.00
561.40	920.00
561.66	870.00
561.91	874.00
562.17	894.00
562.43	904.00
562.68	934.00
562.94	897.00
563.20	898.00
563.46	909.00
563.71	936.00
563.97	883.00
564.23	892.00
564.49	925.00
564.74	885.00
565.00	863.00
565.26	870.00
565.51	899.00
565.77	878.00
566.03	857.00
566.29	879.00
566.54	867.00
566.80	902.00
567.06	882.00
567.31	916.00
567.57	929.00
567.83	885.00
568.09	891.00
568.34	882.00
568.60	893.00
568.86	918.00
569.11	904.00
569.37	884.00
569.63	927.00
569.89	920.00
570.14	840.00
570.40	866.00
570.66	900.00
570.91	884.00
571.17	876.00
571.43	904.00
571.69	944.00
571.94	934.00
572.20	866.00
572.46	881.00
572.71	912.00
572.97	897.00
573.23	873.00
573.48	872.00
573.74	907.00
574.00	921.00
574.26	880.00
574.51	886.00
574.77	915.00
575.03	909.00
575.28	868.00
575.54	864.00
575.80	891.00
576.05	912.00
576.31	884.00
576.57	861.00
576.82	905.00
577.08	902.00
577.34	883.00
577.59	886.00
577.85	906.00
578.11	898.00
578.37	873.00
578.62	863.00
578.88	920.00
579.14	922.00
579.39	901.00
579.65	905.00
579.91	905.00
580.16	914.00
580.42	879.00
580.68	892.00
580.93	919.00
581.19	898.00
581.45	851.00
581.70	879.00
581.96	891.00
582.22	908.00
582.47	895.00
582.73	892.00
582.99	920.00
583.24	896.00
583.50	867.00
583.76	866.00
584.01	887.00
584.27	913.00
584.53	878.00
584.78	888.00
585.04	877.00
585.30	902.00
585.55	877.00
585.81	883.00
586.07	918.00
586.32	892.00
586.58	865.00
586.83	877.00
587.09	903.00
587.35	898.00
587.60	868.00
587.86	862.00
588.12	880.00
588.37	914.00
588.63	886.00
588.89	899.00
589.14	916.00
589.40	911.00
589.66	868.00
589.91	881.00
590.17	898.00
590.43	873.00
590.68	858.00
590.94	884.00
591.19	892.00
591.45	894.00
591.71	873.00
591.96	870.00
592.22	903.00
592.48	922.00
592.73	854.00
592.99	869.00
593.25	893.00
593.50	915.00
593.76	868.00
594.01	874.00
594.27	912.00
594.53	906.00
594.78	878.00
595.04	880.00
595.30	892.00
595.55	893.00
595.81	863.00
596.06	904.00
596.32	941.00
596.58	918.00
596.83	874.00
597.09	904.00
597.35	905.00
597.60	882.00
597.86	862.00
598.11	899.00
598.37	928.00
598.63	914.00
598.88	869.00
599.14	860.00
599.39	915.00
599.65	908.00
599.91	836.00
600.16	863.00
600.42	895.00
600.67	913.00
600.93	852.00
601.19	898.00
601.44	941.00
601.70	908.00
601.95	868.00
602.21	877.00
602.47	896.00
602.72	914.00
602.98	889.00
603.23	897.00
603.49	914.00
603.75	919.00
604.00	881.00
604.26	890.00
604.51	891.00
604.77	914.00
605.03	847.00
605.28	857.00
605.54	917.00
605.79	921.00
606.05	846.00
606.31	867.00
606.56	899.00
606.82	911.00
607.07	874.00
607.33	896.00
607.59	910.00
607.84	894.00
608.10	864.00
608.35	877.00
608.61	918.00
608.86	905.00
609.12	871.00
609.38	901.00
609.63	937.00
609.89	905.00
610.14	845.00
610.40	877.00
610.65	898.00
610.91	905.00
611.17	869.00
611.42	871.00
611.68	921.00
611.93	938.00
612.19	898.00
612.44	915.00
612.70	924.00
612.96	879.00
613.21	854.00
613.47	860.00
613.72	893.00
613.98	924.00
614.23	862.00
614.49	880.00
614.75	907.00
615.00	902.00
615.26	885.00
615.51	883.00
615.77	901.00
616.02	914.00
616.28	879.00
616.53	905.00
616.79	909.00
617.05	887.00
617.30	864.00
617.56	875.00
617.81	921.00
618.07	901.00
618.32	868.00
618.58	917.00
618.83	924.00
619.09	926.00
619.34	865.00
619.60	869.00
619.86	900.00
620.11	933.00
620.37	882.00
620.62	873.00
620.88	911.00
621.13	924.00
621.39	892.00
621.64	897.00
621.90	926.00
622.15	901.00
622.41	863.00
622.66	892.00
622.92	906.00
623.18	905.00
623.43	877.00
623.69	897.00
623.94	921.00
624.20	918.00
624.45	893.00
624.71	907.00
624.96	912.00
625.22	941.00
625.47	903.00
625.73	908.00
625.98	933.00
626.24	903.00
626.49	872.00
626.75	894.00
627.00	922.00
627.26	936.00
627.51	891.00
627.77	930.00
628.02	939.00
628.28	942.00
628.53	905.00
628.79	951.00
629.05	961.00
629.30	922.00
629.56	915.00
629.81	933.00
630.07	941.00
630.32	968.00
630.58	945.00
630.83	939.00
631.09	939.00
631.34	939.00
631.60	909.00
631.85	936.00
632.11	948.00
632.36	954.00
632.62	941.00
632.87	960.00
633.13	981.00
633.38	965.00
633.64	951.00
633.89	954.00
634.15	982.00
634.40	1023.00
634.66	945.00
634.91	949.00
635.17	988.00
635.42	1022.00
635.68	989.00
635.93	968.00
636.18	997.00
636.44	1037.00
636.69	982.00
636.95	985.00
637.20	1018.00
637.46	1007.00
637.71	997.00
637.97	1005.00
638.22	1002.00
638.48	1012.00
638.73	985.00
638.99	971.00
639.24	1038.00
639.50	1021.00
639.75	983.00
640.01	991.00
640.26	1017.00
640.52	1043.00
640.77	979.00
641.03	999.00
641.28	1036.00
641.54	1000.00
641.79	973.00
642.04	1018.00
642.30	1023.00
642.55	1004.00
642.81	983.00
643.06	1008.00
643.32	1047.00
643.57	1033.00
643.83	957.00
644.08	948.00
644.34	956.00
644.59	1014.00
644.85	968.00
645.10	961.00
645.35	981.00
645.61	979.00
645.86	930.00
646.12	948.00
646.37	995.00
646.63	958.00
646.88	920.00
647.14	936.00
647.39	967.00
647.65	980.00
647.90	928.00
648.15	933.00
648.41	938.00
648.66	967.00
648.92	910.00
649.17	914.00
649.43	927.00
649.68	932.00
649.94	907.00
650.19	902.00
650.44	922.00
650.70	939.00
650.95	890.00
651.21	932.00
651.46	954.00
651.72	955.00
651.97	914.00
652.23	891.00
652.48	901.00
652.73	894.00
652.99	878.00
653.24	910.00
653.50	910.00
653.75	902.00
654.01	892.00
654.26	894.00
654.51	900.00
654.77	915.00
655.02	886.00
655.28	889.00
655.53	908.00
655.79	908.00
656.04	904.00
656.29	897.00
656.55	896.00
656.80	901.00
657.06	872.00
657.31	874.00
657.56	886.00
657.82	895.00
658.07	877.00
658.33	901.00
658.58	909.00
658.84	926.00
659.09	897.00
659.34	889.00
659.60	901.00
659.85	912.00
660.11	862.00
660.36	880.00
660.61	889.00
660.87	874.00
661.12	843.00
661.38	868.00
661.63	878.00
661.88	889.00
662.14	884.00
662.39	867.00
662.65	932.00
662.90	952.00
663.15	863.00
663.41	880.00
663.66	913.00
663.92	932.00
664.17	872.00
664.42	898.00
664.68	917.00
664.93	898.00
665.19	864.00
665.44	865.00
665.69	869.00
665.95	891.00
666.20	856.00
666.45	890.00
666.71	890.00
666.96	891.00
667.22	836.00
667.47	876.00
667.72	883.00
667.98	906.00
668.23	860.00
668.49	919.00
668.74	931.00
668.99	897.00
669.25	874.00
669.50	877.00
669.75	921.00
670.01	891.00
670.26	842.00
670.52	879.00
670.77	919.00
671.02	883.00
671.28	860.00
671.53	876.00
671.78	904.00
672.04	931.00
672.29	888.00
672.54	872.00
672.80	890.00
673.05	902.00
673.31	867.00
673.56	909.00
673.81	933.00
674.07	901.00
674.32	874.00
674.57	869.00
674.83	877.00
675.08	907.00
675.33	886.00
675.59	895.00
675.84	918.00
676.09	882.00
676.35	878.00
676.60	902.00
676.86	910.00
677.11	944.00
677.36	898.00
677.62	897.00
677.87	942.00
678.12	936.00
678.38	874.00
678.63	892.00
678.88	920.00
679.14	925.00
679.39	849.00
679.64	871.00
679.90	890.00
680.15	900.00
680.40	880.00
680.66	871.00
680.91	899.00
681.16	896.00
681.42	854.00
681.67	873.00
681.92	899.00
682.18	934.00
682.43	863.00
682.68	872.00
682.94	881.00
683.19	865.00
683.44	870.00
683.70	911.00
683.95	918.00
684.20	901.00
684.46	905.00
684.71	922.00
684.96	909.00
685.22	920.00
685.47	888.00
685.72	894.00
685.98	922.00
686.23	875.00
686.48	865.00
686.74	899.00
686.99	925.00
687.24	921.00
687.50	872.00
687.75	872.00
688.00	889.00
688.25	909.00
688.51	909.00
688.76	905.00
689.01	869.00
689.27	875.00
689.52	842.00
689.77	874.00
690.03	866.00
690.28	881.00
690.53	883.00
690.79	901.00
691.04	904.00
691.29	912.00
691.54	843.00
691.80	870.00
692.05	887.00
692.30	900.00
692.56	881.00
692.81	894.00
693.06	880.00
693.32	882.00
693.57	877.00
693.82	897.00
694.07	910.00
694.33	912.00
694.58	861.00
694.83	889.00
695.09	890.00
695.34	915.00
695.59	885.00
695.84	887.00
696.10	904.00
696.35	916.00
696.60	852.00
696.86	873.00
697.11	898.00
697.36	902.00
697.61	865.00
697.87	886.00
698.12	872.00
698.37	879.00
698.63	883.00
698.88	875.00
699.13	885.00
699.38	882.00
699.64	844.00
699.89	875.00
700.14	884.00
700.39	897.00
700.65	875.00
700.90	905.00
701.15	886.00
701.40	919.00
701.66	874.00
701.91	886.00
702.16	874.00
702.42	874.00
702.67	841.00
702.92	862.00
703.17	895.00
703.43	909.00
703.68	886.00
703.93	928.00
704.18	949.00
704.44	893.00
704.69	878.00
704.94	910.00
705.19	883.00
705.45	911.00
705.70	889.00
705.95	869.00
706.20	882.00
706.46	914.00
706.71	878.00
706.96	875.00
707.21	896.00
707.47	903.00
707.72	884.00
707.97	893.00
708.22	899.00
708.48	930.00
708.73	860.00
708.98	858.00
709.23	881.00
709.49	884.00
709.74	851.00
709.99	873.00
710.24	893.00
710.50	892.00
710.75	881.00
711.00	891.00
711.25	900.00
711.50	889.00
711.76	863.00
712.01	881.00
712.26	889.00
712.51	899.00
712.77	875.00
713.02	874.00
713.27	876.00
713.52	886.00
713.78	889.00
714.03	901.00
714.28	875.00
714.53	904.00
714.78	870.00
715.04	905.00
715.29	912.00
715.54	917.00
715.79	850.00
716.05	890.00
716.30	907.00
716.55	910.00
716.80	886.00
717.05	895.00
717.31	906.00
717.56	904.00
717.81	871.00
718.06	865.00
718.31	874.00
718.57	909.00
718.82	870.00
719.07	900.00
719.32	883.00
719.57	914.00
719.83	865.00
720.08	886.00
720.33	880.00
720.58	883.00
720.83	860.00
721.09	918.00
721.34	910.00
721.59	922.00
721.84	867.00
722.09	886.00
722.35	907.00
722.60	893.00
722.85	864.00
723.10	897.00
723.35	873.00
723.61	891.00
723.86	884.00
724.11	884.00
724.36	884.00
724.61	868.00
724.87	885.00
725.12	873.00
725.37	866.00
725.62	873.00
725.87	866.00
726.12	859.00
726.38	882.00
726.63	894.00
726.88	870.00
727.13	890.00
727.38	880.00
727.64	888.00
727.89	867.00
728.14	863.00
728.39	867.00
728.64	891.00
728.89	891.00
729.15	897.00
729.40	906.00
729.65	909.00
729.90	875.00
730.15	882.00
730.40	920.00
730.66	911.00
730.91	873.00
731.16	889.00
731.41	900.00
731.66	898.00
731.91	872.00
732.17	904.00
732.42	901.00
732.67	880.00
732.92	860.00
733.17	901.00
733.42	886.00
733.68	901.00
733.93	871.00
734.18	881.00
734.43	885.00
734.68	884.00
734.93	873.00
735.18	911.00
735.44	907.00
735.69	905.00
735.94	849.00
736.19	874.00
736.44	880.00
736.69	933.00
736.95	863.00
737.20	883.00
737.45	913.00
737.70	889.00
737.95	885.00
738.20	902.00
738.45	917.00
738.70	901.00
738.96	876.00
739.21	911.00
739.46	910.00
739.71	920.00
739.96	880.00
740.21	898.00
740.46	961.00
740.72	937.00
740.97	853.00
741.22	909.00
741.47	871.00
741.72	884.00
741.97	855.00
742.22	886.00
742.47	900.00
742.73	908.00
742.98	867.00
743.23	865.00
743.48	866.00
743.73	890.00
743.98	877.00
744.23	884.00
744.48	896.00
744.74	879.00
744.99	863.00
745.24	901.00
745.49	893.00
745.74	893.00
745.99	866.00
746.24	881.00
746.49	871.00
746.74	889.00
747.00	872.00
747.25	874.00
747.50	850.00
747.75	863.00
748.00	842.00
748.25	875.00
748.50	879.00
748.75	897.00
749.00	900.00
749.26	919.00
749.51	897.00
749.76	892.00
750.01	864.00
750.26	891.00
750.51	918.00
750.76	920.00
751.01	860.00
751.26	878.00
751.51	912.00
751.77	911.00
752.02	882.00
752.27	869.00
752.52	885.00
752.77	892.00
753.02	865.00
753.27	900.00
753.52	886.00
753.77	888.00
754.02	876.00
754.27	885.00
754.52	872.00
754.78	924.00
755.03	891.00
755.28	899.00
755.53	903.00
755.78	888.00
756.03	844.00
756.28	889.00
756.53	890.00
756.78	894.00
757.03	867.00
757.28	879.00
757.53	892.00
757.79	853.00
758.04	840.00
758.29	907.00
758.54	909.00
758.79	897.00
759.04	853.00
759.29	853.00
759.54	872.00
759.79	889.00
760.04	879.00
760.29	891.00
760.54	885.00
760.79	907.00
761.04	879.00
761.29	888.00
761.55	889.00
761.80	898.00
762.05	864.00
762.30	879.00
762.55	885.00
762.80	917.00
763.05	904.00
763.30	897.00
763.55	914.00
763.80	898.00
764.05	842.00
764.30	906.00
764.55	920.00
764.80	903.00
765.05	867.00
765.30	896.00
765.55	893.00
765.80	883.00
766.05	857.00
766.30	882.00
766.56	884.00
766.81	890.00
767.06	879.00
767.31	895.00
767.56	893.00
767.81	893.00
768.06	855.00
768.31	878.00
768.56	905.00
768.81	928.00
769.06	865.00
769.31	883.00
769.56	876.00
769.81	917.00
770.06	854.00
770.31	876.00
770.56	901.00
770.81	877.00
771.06	852.00
771.31	877.00
771.56	886.00
771.81	907.00
772.06	863.00
772.31	904.00
772.56	894.00
772.81	905.00
773.06	869.00
773.31	873.00
773.56	888.00
773.81	877.00
774.06	852.00
774.31	877.00
774.56	908.00
774.81	910.00
775.06	886.00
775.31	915.00
775.56	909.00
775.81	888.00
776.06	855.00
776.31	883.00
776.56	902.00
776.82	908.00
777.07	868.00
777.32	870.00
777.57	881.00
777.82	925.00
778.07	858.00
778.32	861.00
778.57	891.00
778.82	921.00
779.07	876.00
779.32	868.00
779.57	852.00
779.82	870.00
780.07	857.00
780.32	878.00
780.56	891.00
780.81	926.00
781.06	857.00
781.31	874.00
781.56	920.00
781.81	913.00
782.06	858.00
782.31	901.00
782.56	899.00
782.81	912.00
783.06	869.00
783.31	866.00
783.56	868.00
783.81	913.00
784.06	887.00
784.31	872.00
784.56	848.00
784.81	929.00
785.06	883.00
785.31	899.00
785.56	865.00
785.81	863.00
786.06	840.00
786.31	890.00
786.56	896.00
786.81	902.00
787.06	890.00
787.31	881.00
787.56	882.00
787.81	882.00
788.06	864.00
788.31	902.00
788.56	878.00
788.81	898.00
789.06	870.00
789.31	876.00
789.56	883.00
789.81	874.00
790.06	845.00
790.31	891.00
790.56	887.00
790.80	896.00
791.05	868.00
791.30	860.00
791.55	872.00
791.80	901.00
792.05	872.00
792.30	875.00
792.55	865.00
792.80	896.00
793.05	866.00
793.30	873.00
793.55	875.00
793.80	891.00
794.05	864.00
794.30	893.00
794.55	889.00
794.80	902.00
795.05	855.00
795.30	870.00
795.54	873.00
795.79	905.00
796.04	863.00
796.29	880.00
796.54	870.00
796.79	921.00
797.04	881.00
797.29	898.00
797.54	912.00
797.79	901.00
798.04	876.00
798.29	878.00
798.54	864.00
798.79	870.00
799.04	863.00
799.29	888.00
799.53	889.00
799.78	877.00
800.03	862.00
800.28	878.00
800.53	889.00
800.78	932.00
801.03	861.00
801.28	868.00
801.53	873.00
801.78	910.00
802.03	873.00
802.28	873.00
802.52	897.00
802.77	912.00
803.02	881.00
803.27	889.00
803.52	863.00
803.77	899.00
804.02	880.00
804.27	907.00
804.52	891.00
804.77	906.00
805.02	867.00
805.27	890.00
805.51	887.00
805.76	906.00
806.01	869.00
806.26	868.00
806.51	905.00
806.76	935.00
807.01	905.00
807.26	862.00
807.51	898.00
807.76	882.00
808.00	862.00
808.25	884.00
808.50	893.00
808.75	876.00
809.00	865.00
809.25	877.00
809.50	880.00
809.75	901.00
810.00	891.00
810.24	870.00
810.49	840.00
810.74	865.00
810.99	859.00
811.24	892.00
811.49	909.00
811.74	903.00
811.99	842.00
812.24	871.00
812.48	845.00
812.73	867.00
812.98	844.00
813.23	860.00
813.48	890.00
813.73	874.00
813.98	816.00
814.23	866.00
814.47	878.00
814.72	873.00
814.97	872.00
815.22	928.00
815.47	878.00
815.72	873.00
815.97	854.00
816.22	877.00
816.46	883.00
816.71	897.00
816.96	862.00
817.21	884.00
817.46	876.00
817.71	896.00
817.96	885.00
818.20	884.00
818.45	857.00
818.70	881.00
818.95	867.00
819.20	892.00
819.45	871.00
819.70	872.00
819.94	846.00
820.19	879.00
820.44	881.00
820.69	910.00
820.94	876.00
821.19	893.00
821.44	936.00
821.68	956.00
821.93	883.00
822.18	896.00
822.43	903.00
822.68	914.00
822.93	875.00
823.17	874.00
823.42	895.00
823.67	894.00
823.92	870.00
824.17	881.00
824.42	885.00
824.67	923.00
824.91	869.00
825.16	879.00
825.41	877.00
825.66	878.00
825.91	850.00
826.16	870.00
826.40	886.00
826.65	891.00
826.90	860.00
827.15	865.00
827.40	875.00
827.65	905.00
827.89	837.00
828.14	880.00
828.39	901.00
828.64	904.00
828.89	838.00
829.13	858.00
829.38	863.00
829.63	895.00
829.88	852.00
830.13	861.00
830.38	867.00
830.62	881.00
830.87	876.00
831.12	898.00
831.37	896.00
831.62	904.00
831.86	864.00
832.11	881.00
832.36	852.00
832.61	902.00
832.86	879.00
833.10	878.00
833.35	887.00
833.60	904.00
833.85	864.00
834.10	890.00
834.35	913.00
834.59	912.00
834.84	858.00
835.09	891.00
835.34	871.00
835.59	885.00
835.83	874.00
836.08	898.00
836.33	891.00
836.58	902.00
836.83	869.00
837.07	881.00
837.32	906.00
837.57	885.00
837.82	868.00
838.06	899.00
838.31	931.00
838.56	922.00
838.81	861.00
839.06	889.00
839.30	889.00
839.55	907.00
839.80	875.00
840.05	887.00
840.30	916.00
840.54	928.00
840.79	852.00
841.04	884.00
841.29	897.00
841.53	901.00
841.78	864.00
842.03	858.00
842.28	866.00
842.53	875.00
842.77	880.00
843.02	888.00
843.27	893.00
843.52	905.00
843.76	872.00
844.01	897.00
844.26	887.00
844.51	912.00
844.75	874.00
845.00	866.00
845.25	884.00
845.50	911.00
845.75	881.00
845.99	905.00
846.24	892.00
846.49	907.00
846.74	848.00
846.98	852.00
847.23	859.00
847.48	889.00
847.73	850.00
847.97	871.00
848.22	926.00
848.47	913.00
848.72	868.00
848.96	861.00
849.21	894.00
849.46	877.00
849.71	858.00
849.95	859.00
850.20	864.00
850.45	890.00
850.70	850.00
850.94	893.00
851.19	879.00
851.44	862.00
851.69	831.00
851.93	868.00
852.18	912.00
852.43	892.00
852.68	873.00
852.92	905.00
853.17	945.00
853.42	922.00
853.66	888.00
853.91	910.00
854.16	890.00
854.41	933.00
854.65	853.00
854.90	870.00
855.15	877.00
855.40	895.00
855.64	890.00
855.89	871.00
856.14	876.00
856.39	891.00
856.63	866.00
856.88	882.00
857.13	867.00
857.37	878.00
857.62	851.00
857.87	858.00
858.12	889.00
858.36	912.00
858.61	844.00
858.86	870.00
859.10	899.00
859.35	901.00
859.60	863.00
859.85	861.00
860.09	849.00
860.34	882.00
860.59	859.00
860.83	890.00
861.08	884.00
861.33	913.00
861.58	864.00
861.82	870.00
862.07	888.00
862.32	894.00
862.56	849.00
862.81	872.00
863.06	888.00
863.30	882.00
863.55	868.00
863.80	875.00
864.05	878.00
864.29	893.00
864.54	889.00
864.79	899.00
865.03	886.00
865.28	926.00
865.53	876.00
865.77	857.00
866.02	903.00
866.27	911.00
866.51	873.00
866.76	844.00
867.01	865.00
867.26	901.00
867.50	865.00
867.75	860.00
868.00	892.00
868.24	900.00
868.49	849.00
868.74	873.00
868.98	860.00
869.23	880.00
869.48	885.00
869.72	882.00
869.97	892.00
870.22	916.00
870.46	877.00
870.71	881.00
870.96	896.00
871.20	904.00
871.45	852.00
871.70	885.00
871.94	923.00
872.19	920.00
872.44	890.00
872.68	868.00
872.93	867.00
873.18	901.00
873.42	870.00
873.67	882.00
873.92	892.00
874.16	876.00
874.41	876.00
874.66	896.00
874.90	906.00
875.15	922.00
875.40	906.00
875.64	897.00
875.89	880.00
876.14	897.00
876.38	866.00
876.63	881.00
876.88	900.00
877.12	894.00
877.37	861.00
877.62	888.00
877.86	893.00
878.11	899.00
878.36	862.00
878.60	897.00
878.85	878.00
879.09	892.00
879.34	871.00
879.59	894.00
879.83	919.00
880.08	934.00
880.33	900.00
880.57	881.00
880.82	901.00
881.07	901.00
881.31	871.00
881.56	882.00
881.80	867.00
882.05	884.00
882.30	840.00
882.54	877.00
882.79	912.00
883.04	931.00
883.28	896.00
883.53	863.00
883.77	889.00
884.02	919.00
884.27	853.00
884.51	864.00
884.76	864.00
885.01	905.00
885.25	853.00
885.50	904.00
885.74	888.00
885.99	932.00
886.24	875.00
886.48	876.00
886.73	895.00
886.98	926.00
887.22	901.00
887.47	897.00
887.71	901.00
887.96	900.00
888.21	882.00
888.45	861.00
888.70	864.00
888.94	923.00
889.19	843.00
889.44	858.00
889.68	874.00
889.93	905.00
890.17	866.00
890.42	875.00
890.67	910.00
890.91	973.00
891.16	882.00
891.40	872.00
891.65	878.00
891.90	918.00
892.14	848.00
892.39	890.00
892.63	880.00
892.88	913.00
893.13	886.00
893.37	888.00
893.62	877.00
893.86	914.00
894.11	873.00
894.36	888.00
894.60	869.00
894.85	866.00
895.09	873.00
895.34	900.00
895.59	878.00
895.83	876.00
896.08	866.00
896.32	858.00
896.57	869.00
896.81	885.00
897.06	868.00
897.31	877.00
897.55	900.00
897.80	896.00
898.04	858.00
898.29	872.00
898.53	877.00
898.78	914.00
899.03	881.00
899.27	873.00
899.52	892.00
899.76	927.00
900.01	865.00
900.25	886.00
900.50	902.00
900.75	906.00
900.99	879.00
901.24	948.00
901.48	896.00
901.73	890.00
901.97	868.00
902.22	907.00
902.47	909.00
902.71	900.00
902.96	852.00
903.20	875.00
903.45	897.00
903.69	896.00
903.94	889.00
904.18	854.00
904.43	879.00
904.68	893.00
904.92	852.00
905.17	877.00
905.41	895.00
905.66	908.00
905.90	894.00
906.15	884.00
906.39	898.00
906.64	902.00
906.88	854.00
907.13	864.00
907.38	897.00
907.62	923.00
907.87	861.00
908.11	893.00
908.36	868.00
908.60	897.00
908.85	839.00
909.09	866.00
909.34	864.00
909.58	891.00
909.83	849.00
910.07	866.00
910.32	923.00
910.56	936.00
910.81	859.00
911.06	881.00
911.30	904.00
911.55	898.00
911.79	863.00
912.04	862.00
912.28	863.00
912.53	916.00
912.77	897.00
913.02	877.00
913.26	881.00
913.51	898.00
913.75	873.00
914.00	877.00
914.24	882.00
914.49	899.00
914.73	854.00
914.98	909.00
915.22	916.00
915.47	896.00
915.71	861.00
915.96	873.00
916.20	884.00
916.45	875.00
916.69	867.00
916.94	884.00
917.18	891.00
917.43	900.00
917.67	858.00
917.92	863.00
918.16	906.00
918.41	912.00
918.65	865.00
918.90	854.00
919.14	851.00
919.39	870.00
919.63	848.00
919.88	846.00
920.12	900.00
920.37	894.00
920.61	850.00
920.86	876.00
921.10	896.00
921.35	881.00
921.59	859.00
921.84	878.00
922.08	900.00
922.33	914.00
922.57	862.00
922.82	853.00
923.06	875.00
923.31	902.00
923.55	848.00
923.80	871.00
924.04	870.00
924.29	896.00
924.53	865.00
924.78	871.00
925.02	859.00
925.27	875.00
925.51	880.00
925.76	899.00
926.00	888.00
926.25	883.00
926.49	867.00
926.73	897.00
926.98	887.00
927.22	912.00
927.47	882.00
927.71	888.00
927.96	905.00
928.20	891.00
928.45	874.00
928.69	920.00
928.94	913.00
929.18	892.00
929.43	887.00
929.67	886.00
929.91	889.00
930.16	899.00
930.40	853.00
930.65	863.00
930.89	885.00
931.14	921.00
931.38	883.00
931.63	888.00
931.87	893.00
932.12	906.00
932.36	855.00
932.60	867.00
932.85	897.00
933.09	882.00
933.34	846.00
933.58	877.00
933.83	877.00
934.07	902.00
934.32	885.00
934.56	886.00
934.80	914.00
935.05	931.00
935.29	884.00
935.54	894.00
935.78	887.00
936.03	906.00
936.27	840.00
936.52	859.00
936.76	885.00
937.00	903.00
937.25	879.00
937.49	897.00
937.74	915.00
937.98	898.00
938.23	848.00
938.47	852.00
938.71	870.00
938.96	880.00
939.20	849.00
939.45	859.00
939.69	879.00
939.94	914.00
940.18	853.00
940.42	869.00
940.67	886.00
940.91	884.00
941.16	876.00
941.40	859.00
941.64	879.00
941.89	901.00
942.13	862.00
942.38	873.00
942.62	954.00
942.87	922.00
943.11	885.00
943.35	878.00
943.60	899.00
943.84	930.00
944.09	884.00
944.33	891.00
944.57	905.00
944.82	872.00
945.06	843.00
945.31	875.00
945.55	871.00
945.79	924.00
946.04	885.00
946.28	885.00
946.53	897.00
946.77	902.00
947.01	840.00
947.26	901.00
947.50	875.00
947.75	893.00
947.99	867.00
948.23	906.00
948.48	877.00
948.72	883.00
948.97	859.00
949.21	881.00
949.45	889.00
949.70	907.00
949.94	871.00
950.18	884.00
950.43	893.00
950.67	889.00
950.92	856.00
951.16	871.00
951.40	886.00
951.65	892.00
951.89	885.00
952.13	890.00
952.38	902.00
952.62	886.00
952.87	860.00
953.11	900.00
953.35	917.00
953.60	900.00
953.84	835.00
954.08	845.00
954.33	872.00
954.57	889.00
954.82	875.00
955.06	871.00
955.30	885.00
955.55	865.00
955.79	869.00
956.03	875.00
956.28	873.00
956.52	875.00
956.76	879.00
957.01	904.00
957.25	873.00
957.50	888.00
957.74	857.00
957.98	869.00
958.23	884.00
958.47	876.00
958.71	849.00
958.96	890.00
959.20	915.00
959.44	902.00
959.69	864.00
959.93	890.00
960.17	896.00
960.42	910.00
960.66	896.00
960.90	897.00
961.15	876.00
961.39	871.00
961.64	840.00
961.88	840.00
962.12	906.00
962.37	905.00
962.61	859.00
962.85	852.00
963.10	887.00
963.34	896.00
963.58	862.00
963.83	886.00
964.07	890.00
964.31	908.00
964.56	877.00
964.80	855.00
965.04	875.00
965.29	901.00
965.53	848.00
965.77	866.00
966.02	854.00
966.26	876.00
966.50	860.00
966.74	904.00
966.99	930.00
967.23	905.00
967.47	861.00
967.72	890.00
967.96	903.00
968.20	893.00
968.45	857.00
968.69	865.00
968.93	865.00
969.18	880.00
969.42	877.00
969.66	889.00
969.91	880.00
970.15	904.00
970.39	867.00
970.64	878.00
970.88	900.00
971.12	905.00
971.36	878.00
971.61	876.00
971.85	882.00
972.09	889.00
972.34	860.00
972.58	870.00
972.82	884.00
973.07	916.00
973.31	843.00
973.55	859.00
973.79	911.00
974.04	944.00
974.28	905.00
974.52	886.00
974.77	865.00
975.01	902.00
975.25	881.00
975.50	892.00
975.74	910.00
975.98	906.00
976.22	885.00
976.47	864.00
976.71	883.00
976.95	888.00
977.20	895.00
977.44	892.00
977.68	906.00
977.92	912.00
978.17	865.00
978.41	878.00
978.65	898.00
978.90	893.00
979.14	877.00
979.38	890.00
979.62	902.00
979.87	866.00
980.11	822.00
980.35	880.00
980.59	894.00
980.84	910.00
981.08	872.00
981.32	861.00
981.57	886.00
981.81	887.00
982.05	867.00
982.29	862.00
982.54	882.00
982.78	881.00
983.02	853.00
983.26	878.00
983.51	914.00
983.75	916.00
983.99	866.00
984.23	889.00
984.48	906.00
984.72	910.00
984.96	859.00
985.20	874.00
985.45	930.00
985.69	897.00
985.93	877.00
986.17	899.00
986.42	900.00
986.66	898.00
986.90	830.00
987.14	858.00
987.39	877.00
987.63	864.00
987.87	852.00
988.11	872.00
988.36	893.00
988.60	889.00
988.84	903.00
989.08	875.00
989.33	901.00
989.57	893.00
989.81	849.00
990.05	868.00
990.30	869.00
990.54	872.00
990.78	839.00
991.02	855.00
991.27	885.00
991.51	894.00
991.75	849.00
991.99	903.00
992.23	876.00
992.48	865.00
992.72	854.00
992.96	873.00
993.20	875.00
993.45	894.00
993.69	890.00
993.93	854.00
994.17	893.00
994.41	896.00
994.66	854.00
994.90	876.00
995.14	916.00
995.38	896.00
995.63	858.00
995.87	872.00
996.11	930.00
996.35	902.00
996.59	836.00
996.84	844.00
997.08	881.00
997.32	885.00
997.56	861.00
997.80	850.00
998.05	861.00
998.29	866.00
998.53	865.00
998.77	883.00
999.01	902.00
999.26	890.00
999.50	848.00
999.74	846.00
999.98	887.00
1000.22	893.00
1000.47	857.00
1000.71	854.00
1000.95	897.00
1001.19	907.00
1001.43	871.00
1001.68	870.00
1001.92	887.00
1002.16	873.00
1002.40	847.00
1002.64	875.00
1002.89	883.00
1003.13	890.00
1003.37	891.00
1003.61	872.00
1003.85	873.00
1004.10	881.00
1004.34	861.00
1004.58	870.00
1004.82	896.00
1005.06	882.00
1005.30	853.00
1005.55	865.00
1005.79	879.00
1006.03	877.00
1006.27	865.00
1006.51	884.00
1006.76	882.00
1007.00	911.00
1007.24	878.00
1007.48	890.00
1007.72	915.00
1007.96	896.00
1008.21	880.00
1008.45	889.00
1008.69	893.00
1008.93	910.00
1009.17	857.00
1009.41	892.00
1009.66	921.00
1009.90	902.00
1010.14	865.00
1010.38	884.00
1010.62	893.00
1010.86	907.00
1011.10	889.00
1011.35	860.00
1011.59	885.00
1011.83	870.00
1012.07	840.00
1012.31	883.00
1012.55	898.00
1012.80	923.00
1013.04	901.00
1013.28	879.00
1013.52	873.00
1013.76	898.00
1014.00	851.00
1014.24	882.00
1014.49	907.00
1014.73	932.00
1014.97	906.00
1015.21	880.00
1015.45	905.00
1015.69	902.00
1015.93	867.00
1016.18	871.00
1016.42	909.00
1016.66	915.00
1016.90	863.00
1017.14	858.00
1017.38	881.00
1017.62	881.00
1017.87	865.00
1018.11	889.00
1018.35	894.00
1018.59	897.00
1018.83	867.00
1019.07	879.00
1019.31	907.00
1019.55	905.00
1019.80	874.00
1020.04	884.00
1020.28	896.00
1020.52	897.00
1020.76	870.00
1021.00	856.00
1021.24	879.00
1021.48	869.00
1021.73	854.00
1021.97	891.00
1022.21	881.00
1022.45	904.00
1022.69	876.00
1022.93	862.00
1023.17	898.00
1023.41	941.00
1023.65	884.00
1023.90	895.00
1024.14	914.00
1024.38	879.00
1024.62	833.00
1024.86	864.00
1025.10	891.00
1025.34	875.00
1025.58	855.00
1025.82	874.00
1026.07	913.00
1026.31	905.00
1026.55	860.00
1026.79	859.00
1027.03	878.00
1027.27	884.00
1027.51	842.00
1027.75	846.00
1027.99	882.00
1028.23	918.00
1028.47	870.00
1028.72	877.00
1028.96	896.00
1029.20	913.00
1029.44	881.00
1029.68	879.00
1029.92	896.00
1030.16	916.00
1030.40	834.00
1030.64	860.00
1030.88	876.00
1031.12	877.00
1031.37	839.00
1031.61	874.00
1031.85	910.00
1032.09	915.00
1032.33	863.00
1032.57	913.00
1032.81	872.00
1033.05	902.00
1033.29	891.00
1033.53	885.00
1033.77	950.00
1034.01	931.00
1034.25	889.00
1034.50	883.00
1034.74	884.00
1034.98	911.00
1035.22	880.00
1035.46	889.00
1035.70	920.00
1035.94	923.00
1036.18	877.00
1036.42	859.00
1036.66	873.00
1036.90	886.00
1037.14	844.00
1037.38	854.00
1037.62	895.00
1037.86	879.00
1038.10	872.00
1038.35	878.00
1038.59	885.00
1038.83	896.00
1039.07	862.00
1039.31	880.00
1039.55	866.00
1039.79	886.00
1040.03	853.00
1040.27	848.00
1040.51	897.00
1040.75	916.00
1040.99	881.00
1041.23	906.00
1041.47	886.00
1041.71	914.00
1041.95	874.00
1042.19	858.00
1042.43	900.00
1042.67	920.00
1042.91	873.00
1043.15	865.00
1043.39	908.00
1043.64	895.00
1043.88	854.00
1044.12	877.00
1044.36	950.00
1044.60	921.00
1044.84	880.00
1045.08	896.00
1045.32	900.00
1045.56	904.00
1045.80	876.00
1046.04	878.00
1046.28	922.00
1046.52	892.00
1046.76	849.00
1047.00	859.00
1047.24	885.00
1047.48	889.00
1047.72	879.00
1047.96	870.00
1048.20	908.00
1048.44	894.00
1048.68	844.00
1048.92	884.00
1049.16	886.00
1049.40	885.00
1049.64	875.00
1049.88	898.00
1050.12	913.00
1050.36	929.00
1050.60	876.00
1050.84	884.00
1051.08	894.00
1051.32	873.00
1051.56	877.00
1051.80	882.00
1052.04	890.00
1052.28	919.00
1052.52	853.00
1052.76	852.00
1053.00	883.00
1053.24	911.00
1053.48	860.00
1053.72	859.00
1053.96	877.00
1054.20	896.00
1054.44	880.00
1054.68	886.00
1054.92	895.00
1055.16	872.00
1055.40	877.00
1055.64	890.00
1055.88	908.00
1056.12	924.00
1056.36	845.00
1056.60	845.00
1056.84	897.00
1057.08	896.00
1057.32	855.00
1057.56	859.00
1057.80	884.00
1058.04	893.00
1058.28	858.00
1058.52	867.00
1058.76	898.00
1059.00	928.00
1059.24	848.00
1059.48	860.00
1059.72	908.00
1059.96	877.00
1060.20	896.00
1060.44	899.00
1060.68	922.00
1060.92	901.00
1061.16	850.00
1061.40	859.00
1061.64	884.00
1061.88	893.00
1062.11	856.00
1062.35	853.00
1062.59	873.00
1062.83	925.00
1063.07	870.00
1063.31	848.00
1063.55	873.00
1063.79	906.00
1064.03	873.00
1064.27	880.00
1064.51	901.00
1064.75	886.00
1064.99	852.00
1065.23	887.00
1065.47	876.00
1065.71	893.00
1065.95	862.00
1066.19	878.00
1066.43	917.00
1066.67	911.00
1066.91	877.00
1067.15	866.00
1067.38	872.00
1067.62	897.00
1067.86	867.00
1068.10	882.00
1068.34	923.00
1068.58	920.00
1068.82	865.00
1069.06	847.00
1069.30	893.00
1069.54	908.00
1069.78	890.00
1070.02	873.00
1070.26	907.00
1070.50	937.00
1070.74	864.00
1070.98	896.00
1071.21	891.00
1071.45	895.00
1071.69	846.00
1071.93	869.00
1072.17	885.00
1072.41	890.00
1072.65	891.00
1072.89	905.00
1073.13	894.00
1073.37	876.00
1073.61	839.00
1073.85	882.00
1074.09	868.00
1074.32	860.00
1074.56	865.00
1074.80	935.00
1075.04	1133.00
1075.28	978.00
1075.52	865.00
1075.76	878.00
1076.00	914.00
1076.24	904.00
1076.48	879.00
1076.72	892.00
1076.96	923.00
1077.19	901.00
1077.43	863.00
1077.67	891.00
1077.91	903.00
1078.15	877.00
1078.39	865.00
1078.63	866.00
1078.87	884.00
1079.11	884.00
1079.35	858.00
1079.58	866.00
1079.82	884.00
1080.06	885.00
1080.30	859.00
1080.54	892.00
1080.78	909.00
1081.02	873.00
1081.26	863.00
1081.50	878.00
1081.74	905.00
1081.97	914.00
1082.21	891.00
1082.45	890.00
1082.69	894.00
1082.93	887.00
1083.17	860.00
1083.41	858.00
1083.65	923.00
1083.88	946.00
1084.12	892.00
1084.36	896.00
1084.60	904.00
1084.84	912.00
1085.08	850.00
1085.32	868.00
1085.56	912.00
1085.80	895.00
1086.03	868.00
1086.27	852.00
1086.51	884.00
1086.75	889.00
1086.99	863.00
1087.23	853.00
1087.47	890.00
1087.70	870.00
1087.94	860.00
1088.18	897.00
1088.42	925.00
1088.66	898.00
1088.90	847.00
1089.14	870.00
1089.38	880.00
1089.61	899.00
1089.85	879.00
1090.09	856.00
1090.33	911.00
1090.57	918.00
1090.81	844.00
1091.05	872.00
1091.28	916.00
1091.52	916.00
1091.76	849.00
1092.00	869.00
1092.24	908.00
1092.48	936.00
1092.71	863.00
1092.95	906.00
1093.19	915.00
1093.43	885.00
1093.67	851.00
1093.91	882.00
1094.15	885.00
1094.38	900.00
1094.62	856.00
1094.86	863.00
1095.10	880.00
1095.34	901.00
1095.58	867.00
1095.81	870.00
1096.05	914.00
1096.29	910.00
1096.53	870.00
1096.77	879.00
1097.01	877.00
1097.24	901.00
1097.48	848.00
1097.72	876.00
1097.96	886.00
1098.20	898.00
1098.44	848.00
1098.67	837.00
1098.91	879.00
1099.15	906.00
1099.39	858.00
1099.63	881.00
1099.86	915.00
1100.10	881.00
1100.34	860.00
1100.58	874.00
1100.82	890.00
1101.06	893.00
1101.29	857.00
1101.53	874.00
1101.77	906.00
1102.01	894.00
1102.25	863.00
1102.48	886.00
1102.72	915.00
1102.96	906.00
1103.20	849.00
1103.44	868.00
1103.67	889.00
1103.91	897.00
1104.15	844.00
1104.39	857.00
1104.63	884.00
1104.86	859.00
1105.10	845.00
1105.34	884.00
1105.58	876.00
1105.82	888.00
1106.05	885.00
1106.29	900.00
1106.53	896.00
1106.77	926.00
1107.01	857.00
1107.24	892.00
1107.48	936.00
1107.72	908.00
1107.96	835.00
1108.20	865.00
1108.43	878.00
1108.67	881.00
1108.91	872.00
1109.15	854.00
1109.39	870.00
1109.62	886.00
1109.86	842.00
1110.10	863.00
1110.34	933.00
1110.57	949.00
1110.81	872.00
1111.05	874.00
1111.29	909.00
1111.53	930.00
1111.76	855.00
1112.00	908.00
1112.24	924.00
1112.48	903.00
1112.71	850.00
1112.95	861.00
1113.19	903.00
1113.43	895.00
1113.66	835.00
1113.90	882.00
1114.14	888.00
1114.38	892.00
1114.62	858.00
1114.85	899.00
1115.09	886.00
1115.33	944.00
1115.57	896.00
1115.80	879.00
1116.04	898.00
1116.28	893.00
1116.52	869.00
1116.75	870.00
1116.99	911.00
1117.23	920.00
1117.47	888.00
1117.70	918.00
1117.94	948.00
1118.18	894.00
1118.42	880.00
1118.65	891.00
1118.89	894.00
1119.13	889.00
1119.37	860.00
1119.60	900.00
1119.84	921.00
>>>>>End Processed Spectral Data<<<<<
