SpectraSuite Data File
++++++++++++++++++++++++++++++++++++
Date: Fri Dec 06 16:12:46 CET 2024
User: student
Dark Spectrum Present: No
Reference Spectrum Present: No
Number of Sampled Component Spectra: 1
Spectrometers: HR4C155
Integration Time (usec): 100000 (HR4C155)
Spectra Averaged: 1 (HR4C155)
Boxcar Smoothing: 0 (HR4C155)
Correct for Electrical Dark: No (HR4C155)
Strobe/Lamp Enabled: No (HR4C155)
Correct for Detector Non-linearity: No (HR4C155)
Correct for Stray Light: No (HR4C155)
Number of Pixels in Processed Spectrum: 3648
>>>>>Begin Processed Spectral Data<<<<<
195.39	735.00
195.66	735.00
195.93	735.00
196.20	670.00
196.46	717.00
196.73	844.00
197.00	846.00
197.27	844.00
197.54	853.00
197.81	852.00
198.08	871.00
198.35	900.00
198.61	919.00
198.88	892.00
199.15	861.00
199.42	882.00
199.69	904.00
199.96	873.00
200.23	862.00
200.49	871.00
200.76	899.00
201.03	906.00
201.30	888.00
201.57	932.00
201.84	923.00
202.11	890.00
202.38	921.00
202.64	912.00
202.91	926.00
203.18	873.00
203.45	933.00
203.72	1017.00
203.99	947.00
204.25	938.00
204.52	931.00
204.79	929.00
205.06	936.00
205.33	892.00
205.60	913.00
205.87	945.00
206.13	946.00
206.40	914.00
206.67	889.00
206.94	931.00
207.21	954.00
207.48	932.00
207.75	911.00
208.01	945.00
208.28	944.00
208.55	905.00
208.82	920.00
209.09	914.00
209.36	945.00
209.62	922.00
209.89	937.00
210.16	966.00
210.43	970.00
210.70	885.00
210.97	911.00
211.23	935.00
211.50	973.00
211.77	913.00
212.04	912.00
212.31	927.00
212.58	964.00
212.84	930.00
213.11	931.00
213.38	889.00
213.65	913.00
213.92	886.00
214.18	913.00
214.45	960.00
214.72	957.00
214.99	897.00
215.26	922.00
215.53	914.00
215.79	946.00
216.06	943.00
216.33	937.00
216.60	917.00
216.87	962.00
217.13	867.00
217.40	880.00
217.67	929.00
217.94	973.00
218.21	895.00
218.48	938.00
218.74	990.00
219.01	946.00
219.28	878.00
219.55	880.00
219.82	925.00
220.08	947.00
220.35	916.00
220.62	890.00
220.89	946.00
221.16	969.00
221.42	930.00
221.69	947.00
221.96	967.00
222.23	959.00
222.50	942.00
222.76	948.00
223.03	916.00
223.30	906.00
223.57	892.00
223.84	887.00
224.10	902.00
224.37	922.00
224.64	883.00
224.91	921.00
225.18	955.00
225.44	942.00
225.71	916.00
225.98	945.00
226.25	960.00
226.51	965.00
226.78	894.00
227.05	892.00
227.32	936.00
227.59	930.00
227.85	921.00
228.12	915.00
228.39	961.00
228.66	976.00
228.92	982.00
229.19	939.00
229.46	946.00
229.73	918.00
230.00	886.00
230.26	922.00
230.53	969.00
230.80	922.00
231.07	877.00
231.33	897.00
231.60	926.00
231.87	948.00
232.14	918.00
232.41	960.00
232.67	949.00
232.94	953.00
233.21	882.00
233.48	926.00
233.74	933.00
234.01	924.00
234.28	898.00
234.55	913.00
234.81	912.00
235.08	961.00
235.35	911.00
235.62	891.00
235.88	929.00
236.15	943.00
236.42	918.00
236.69	916.00
236.95	952.00
237.22	937.00
237.49	904.00
237.76	908.00
238.02	962.00
238.29	964.00
238.56	890.00
238.83	898.00
239.09	915.00
239.36	964.00
239.63	921.00
239.90	921.00
240.16	962.00
240.43	997.00
240.70	909.00
240.97	910.00
241.23	931.00
241.50	929.00
241.77	913.00
242.04	915.00
242.30	887.00
242.57	910.00
242.84	895.00
243.11	891.00
243.37	874.00
243.64	933.00
243.91	900.00
244.18	900.00
244.44	895.00
244.71	894.00
244.98	904.00
245.24	913.00
245.51	921.00
245.78	945.00
246.05	877.00
246.31	894.00
246.58	940.00
246.85	911.00
247.12	905.00
247.38	937.00
247.65	923.00
247.92	948.00
248.18	909.00
248.45	929.00
248.72	922.00
248.99	935.00
249.25	897.00
249.52	916.00
249.79	955.00
250.05	948.00
250.32	908.00
250.59	889.00
250.86	907.00
251.12	914.00
251.39	876.00
251.66	909.00
251.92	933.00
252.19	953.00
252.46	902.00
252.73	957.00
252.99	969.00
253.26	956.00
253.53	885.00
253.79	924.00
254.06	926.00
254.33	916.00
254.60	881.00
254.86	898.00
255.13	946.00
255.40	964.00
255.66	923.00
255.93	945.00
256.20	938.00
256.46	951.00
256.73	918.00
257.00	907.00
257.26	937.00
257.53	946.00
257.80	916.00
258.07	922.00
258.33	974.00
258.60	953.00
258.87	897.00
259.13	925.00
259.40	920.00
259.67	972.00
259.93	934.00
260.20	939.00
260.47	947.00
260.73	927.00
261.00	899.00
261.27	919.00
261.53	942.00
261.80	934.00
262.07	892.00
262.34	913.00
262.60	901.00
262.87	943.00
263.14	900.00
263.40	937.00
263.67	919.00
263.94	920.00
264.20	895.00
264.47	901.00
264.74	898.00
265.00	909.00
265.27	863.00
265.54	882.00
265.80	928.00
266.07	969.00
266.34	908.00
266.60	914.00
266.87	922.00
267.14	929.00
267.40	883.00
267.67	880.00
267.94	920.00
268.20	909.00
268.47	880.00
268.74	915.00
269.00	920.00
269.27	922.00
269.54	874.00
269.80	906.00
270.07	961.00
270.33	902.00
270.60	894.00
270.87	914.00
271.13	921.00
271.40	924.00
271.67	865.00
271.93	863.00
272.20	919.00
272.47	900.00
272.73	862.00
273.00	922.00
273.27	927.00
273.53	954.00
273.80	913.00
274.07	895.00
274.33	904.00
274.60	931.00
274.86	897.00
275.13	899.00
275.40	915.00
275.66	958.00
275.93	914.00
276.20	888.00
276.46	900.00
276.73	899.00
277.00	902.00
277.26	925.00
277.53	942.00
277.79	925.00
278.06	892.00
278.33	939.00
278.59	927.00
278.86	902.00
279.13	899.00
279.39	914.00
279.66	937.00
279.93	962.00
280.19	898.00
280.46	910.00
280.72	919.00
280.99	948.00
281.26	902.00
281.52	901.00
281.79	922.00
282.05	915.00
282.32	889.00
282.59	914.00
282.85	947.00
283.12	933.00
283.39	911.00
283.65	913.00
283.92	932.00
284.18	938.00
284.45	913.00
284.72	915.00
284.98	910.00
285.25	924.00
285.51	923.00
285.78	933.00
286.05	927.00
286.31	908.00
286.58	868.00
286.84	891.00
287.11	902.00
287.38	920.00
287.64	920.00
287.91	901.00
288.17	939.00
288.44	928.00
288.71	871.00
288.97	885.00
289.24	938.00
289.50	922.00
289.77	907.00
290.04	887.00
290.30	899.00
290.57	948.00
290.83	891.00
291.10	886.00
291.37	920.00
291.63	914.00
291.90	925.00
292.16	931.00
292.43	939.00
292.70	907.00
292.96	875.00
293.23	886.00
293.49	901.00
293.76	926.00
294.02	890.00
294.29	912.00
294.56	938.00
294.82	929.00
295.09	875.00
295.35	882.00
295.62	951.00
295.89	947.00
296.15	890.00
296.42	876.00
296.68	920.00
296.95	913.00
297.21	904.00
297.48	915.00
297.75	936.00
298.01	957.00
298.28	899.00
298.54	914.00
298.81	912.00
299.07	924.00
299.34	871.00
299.61	910.00
299.87	947.00
300.14	915.00
300.40	921.00
300.67	889.00
300.93	934.00
301.20	947.00
301.46	890.00
301.73	926.00
302.00	946.00
302.26	910.00
302.53	899.00
302.79	905.00
303.06	913.00
303.32	961.00
303.59	877.00
303.85	873.00
304.12	906.00
304.39	925.00
304.65	878.00
304.92	894.00
305.18	917.00
305.45	942.00
305.71	898.00
305.98	923.00
306.24	926.00
306.51	890.00
306.77	893.00
307.04	911.00
307.31	931.00
307.57	949.00
307.84	879.00
308.10	892.00
308.37	890.00
308.63	904.00
308.90	890.00
309.16	913.00
309.43	927.00
309.69	915.00
309.96	907.00
310.22	922.00
310.49	918.00
310.76	928.00
311.02	880.00
311.29	912.00
311.55	919.00
311.82	926.00
312.08	919.00
312.35	907.00
312.61	946.00
312.88	945.00
313.14	898.00
313.41	893.00
313.67	891.00
313.94	917.00
314.20	909.00
314.47	900.00
314.73	878.00
315.00	891.00
315.26	873.00
315.53	919.00
315.79	915.00
316.06	909.00
316.32	888.00
316.59	923.00
316.85	916.00
317.12	923.00
317.39	876.00
317.65	897.00
317.92	921.00
318.18	928.00
318.45	891.00
318.71	949.00
318.98	940.00
319.24	918.00
319.51	907.00
319.77	905.00
320.04	905.00
320.30	911.00
320.57	880.00
320.83	878.00
321.10	878.00
321.36	900.00
321.63	874.00
321.89	888.00
322.16	951.00
322.42	933.00
322.69	885.00
322.95	885.00
323.22	912.00
323.48	931.00
323.75	887.00
324.01	901.00
324.28	897.00
324.54	930.00
324.80	904.00
325.07	930.00
325.33	942.00
325.60	904.00
325.86	869.00
326.13	891.00
326.39	897.00
326.66	886.00
326.92	859.00
327.19	895.00
327.45	932.00
327.72	953.00
327.98	901.00
328.25	892.00
328.51	932.00
328.78	933.00
329.04	889.00
329.31	907.00
329.57	914.00
329.84	904.00
330.10	877.00
330.37	907.00
330.63	943.00
330.89	949.00
331.16	903.00
331.42	902.00
331.69	942.00
331.95	922.00
332.22	904.00
332.48	919.00
332.75	925.00
333.01	890.00
333.28	886.00
333.54	914.00
333.81	930.00
334.07	941.00
334.34	905.00
334.60	919.00
334.86	968.00
335.13	969.00
335.39	910.00
335.66	907.00
335.92	939.00
336.19	938.00
336.45	858.00
336.72	865.00
336.98	890.00
337.24	922.00
337.51	865.00
337.77	882.00
338.04	908.00
338.30	919.00
338.57	892.00
338.83	916.00
339.10	931.00
339.36	923.00
339.63	872.00
339.89	873.00
340.15	905.00
340.42	933.00
340.68	936.00
340.95	921.00
341.21	906.00
341.48	907.00
341.74	889.00
342.00	874.00
342.27	920.00
342.53	918.00
342.80	897.00
343.06	888.00
343.33	911.00
343.59	911.00
343.85	893.00
344.12	908.00
344.38	971.00
344.65	968.00
344.91	893.00
345.18	900.00
345.44	906.00
345.70	893.00
345.97	860.00
346.23	880.00
346.50	924.00
346.76	907.00
347.03	897.00
347.29	889.00
347.55	891.00
347.82	913.00
348.08	861.00
348.35	881.00
348.61	961.00
348.87	935.00
349.14	880.00
349.40	870.00
349.67	925.00
349.93	904.00
350.20	907.00
350.46	912.00
350.72	934.00
350.99	912.00
351.25	891.00
351.52	886.00
351.78	908.00
352.04	935.00
352.31	916.00
352.57	899.00
352.84	898.00
353.10	907.00
353.36	896.00
353.63	884.00
353.89	910.00
354.16	937.00
354.42	903.00
354.68	917.00
354.95	959.00
355.21	932.00
355.48	891.00
355.74	938.00
356.00	956.00
356.27	952.00
356.53	891.00
356.80	895.00
357.06	929.00
357.32	936.00
357.59	924.00
357.85	942.00
358.11	963.00
358.38	949.00
358.64	898.00
358.91	905.00
359.17	925.00
359.43	944.00
359.70	904.00
359.96	893.00
360.22	939.00
360.49	905.00
360.75	906.00
361.02	882.00
361.28	897.00
361.54	916.00
361.81	867.00
362.07	894.00
362.33	910.00
362.60	899.00
362.86	898.00
363.13	908.00
363.39	926.00
363.65	956.00
363.92	861.00
364.18	865.00
364.44	913.00
364.71	926.00
364.97	888.00
365.24	896.00
365.50	925.00
365.76	924.00
366.03	881.00
366.29	932.00
366.55	941.00
366.82	909.00
367.08	879.00
367.34	885.00
367.61	935.00
367.87	945.00
368.13	929.00
368.40	906.00
368.66	956.00
368.93	940.00
369.19	864.00
369.45	877.00
369.72	922.00
369.98	890.00
370.24	857.00
370.51	890.00
370.77	908.00
371.03	904.00
371.30	899.00
371.56	920.00
371.82	944.00
372.09	913.00
372.35	908.00
372.61	907.00
372.88	908.00
373.14	926.00
373.40	910.00
373.67	897.00
373.93	913.00
374.19	926.00
374.46	885.00
374.72	880.00
374.98	927.00
375.25	929.00
375.51	915.00
375.77	924.00
376.04	949.00
376.30	958.00
376.56	886.00
376.83	888.00
377.09	927.00
377.35	907.00
377.62	885.00
377.88	882.00
378.14	908.00
378.41	939.00
378.67	913.00
378.93	902.00
379.20	949.00
379.46	914.00
379.72	879.00
379.99	893.00
380.25	900.00
380.51	893.00
380.77	890.00
381.04	912.00
381.30	942.00
381.56	962.00
381.83	904.00
382.09	893.00
382.35	916.00
382.62	934.00
382.88	920.00
383.14	907.00
383.41	905.00
383.67	911.00
383.93	917.00
384.20	908.00
384.46	934.00
384.72	957.00
384.98	871.00
385.25	917.00
385.51	927.00
385.77	906.00
386.04	887.00
386.30	879.00
386.56	942.00
386.82	970.00
387.09	887.00
387.35	922.00
387.61	978.00
387.88	933.00
388.14	891.00
388.40	901.00
388.67	904.00
388.93	908.00
389.19	918.00
389.45	903.00
389.72	927.00
389.98	941.00
390.24	896.00
390.51	877.00
390.77	911.00
391.03	946.00
391.29	889.00
391.56	898.00
391.82	928.00
392.08	947.00
392.35	908.00
392.61	888.00
392.87	923.00
393.13	936.00
393.40	901.00
393.66	893.00
393.92	912.00
394.18	928.00
394.45	874.00
394.71	881.00
394.97	914.00
395.24	903.00
395.50	880.00
395.76	904.00
396.02	935.00
396.29	917.00
396.55	849.00
396.81	846.00
397.07	904.00
397.34	891.00
397.60	871.00
397.86	874.00
398.12	915.00
398.39	948.00
398.65	893.00
398.91	889.00
399.17	906.00
399.44	869.00
399.70	836.00
399.96	876.00
400.22	892.00
400.49	924.00
400.75	904.00
401.01	886.00
401.27	901.00
401.54	938.00
401.80	898.00
402.06	884.00
402.32	928.00
402.59	902.00
402.85	854.00
403.11	889.00
403.37	905.00
403.64	938.00
403.90	877.00
404.16	884.00
404.42	893.00
404.69	881.00
404.95	879.00
405.21	862.00
405.47	887.00
405.74	923.00
406.00	891.00
406.26	878.00
406.52	902.00
406.79	930.00
407.05	891.00
407.31	906.00
407.57	905.00
407.83	923.00
408.10	849.00
408.36	882.00
408.62	898.00
408.88	894.00
409.15	877.00
409.41	856.00
409.67	891.00
409.93	921.00
410.20	897.00
410.46	893.00
410.72	901.00
410.98	926.00
411.24	899.00
411.51	913.00
411.77	915.00
412.03	910.00
412.29	890.00
412.55	915.00
412.82	894.00
413.08	914.00
413.34	901.00
413.60	892.00
413.87	910.00
414.13	919.00
414.39	883.00
414.65	906.00
414.91	932.00
415.18	902.00
415.44	850.00
415.70	877.00
415.96	908.00
416.22	916.00
416.49	882.00
416.75	870.00
417.01	909.00
417.27	901.00
417.53	884.00
417.80	907.00
418.06	924.00
418.32	934.00
418.58	883.00
418.84	889.00
419.11	910.00
419.37	939.00
419.63	898.00
419.89	890.00
420.15	910.00
420.42	904.00
420.68	864.00
420.94	913.00
421.20	927.00
421.46	918.00
421.72	920.00
421.99	899.00
422.25	899.00
422.51	904.00
422.77	887.00
423.03	893.00
423.30	906.00
423.56	934.00
423.82	920.00
424.08	905.00
424.34	934.00
424.60	929.00
424.87	877.00
425.13	884.00
425.39	895.00
425.65	918.00
425.91	879.00
426.18	903.00
426.44	913.00
426.70	881.00
426.96	856.00
427.22	855.00
427.48	884.00
427.75	913.00
428.01	855.00
428.27	886.00
428.53	925.00
428.79	898.00
429.05	875.00
429.32	890.00
429.58	937.00
429.84	888.00
430.10	902.00
430.36	890.00
430.62	919.00
430.88	927.00
431.15	896.00
431.41	905.00
431.67	923.00
431.93	900.00
432.19	862.00
432.45	905.00
432.72	924.00
432.98	908.00
433.24	908.00
433.50	974.00
433.76	902.00
434.02	907.00
434.28	863.00
434.55	883.00
434.81	911.00
435.07	920.00
435.33	873.00
435.59	866.00
435.85	886.00
436.11	919.00
436.38	861.00
436.64	884.00
436.90	900.00
437.16	898.00
437.42	877.00
437.68	888.00
437.94	910.00
438.21	911.00
438.47	908.00
438.73	898.00
438.99	904.00
439.25	905.00
439.51	881.00
439.77	892.00
440.03	907.00
440.30	934.00
440.56	906.00
440.82	924.00
441.08	945.00
441.34	916.00
441.60	867.00
441.86	902.00
442.12	911.00
442.39	911.00
442.65	882.00
442.91	885.00
443.17	901.00
443.43	917.00
443.69	897.00
443.95	872.00
444.21	881.00
444.47	919.00
444.74	868.00
445.00	878.00
445.26	895.00
445.52	907.00
445.78	860.00
446.04	878.00
446.30	933.00
446.56	928.00
446.82	863.00
447.09	883.00
447.35	912.00
447.61	916.00
447.87	898.00
448.13	909.00
448.39	939.00
448.65	927.00
448.91	878.00
449.17	862.00
449.43	889.00
449.70	891.00
449.96	863.00
450.22	872.00
450.48	912.00
450.74	947.00
451.00	907.00
451.26	881.00
451.52	883.00
451.78	875.00
452.04	875.00
452.31	922.00
452.57	927.00
452.83	904.00
453.09	885.00
453.35	895.00
453.61	913.00
453.87	906.00
454.13	906.00
454.39	914.00
454.65	969.00
454.91	957.00
455.17	863.00
455.44	891.00
455.70	918.00
455.96	916.00
456.22	874.00
456.48	880.00
456.74	894.00
457.00	858.00
457.26	816.00
457.52	863.00
457.78	898.00
458.04	909.00
458.30	880.00
458.56	897.00
458.82	913.00
459.09	886.00
459.35	836.00
459.61	844.00
459.87	899.00
460.13	923.00
460.39	884.00
460.65	867.00
460.91	926.00
461.17	881.00
461.43	858.00
461.69	862.00
461.95	913.00
462.21	905.00
462.47	905.00
462.73	933.00
462.99	932.00
463.26	927.00
463.52	880.00
463.78	861.00
464.04	887.00
464.30	903.00
464.56	877.00
464.82	904.00
465.08	931.00
465.34	942.00
465.60	914.00
465.86	895.00
466.12	892.00
466.38	891.00
466.64	884.00
466.90	883.00
467.16	912.00
467.42	881.00
467.68	861.00
467.94	915.00
468.20	940.00
468.46	908.00
468.72	865.00
468.98	888.00
469.25	909.00
469.51	886.00
469.77	900.00
470.03	895.00
470.29	897.00
470.55	897.00
470.81	894.00
471.07	909.00
471.33	927.00
471.59	927.00
471.85	885.00
472.11	905.00
472.37	937.00
472.63	907.00
472.89	901.00
473.15	889.00
473.41	903.00
473.67	894.00
473.93	855.00
474.19	869.00
474.45	880.00
474.71	910.00
474.97	879.00
475.23	872.00
475.49	893.00
475.75	880.00
476.01	885.00
476.27	914.00
476.53	934.00
476.79	919.00
477.05	876.00
477.31	889.00
477.57	921.00
477.83	907.00
478.09	867.00
478.35	901.00
478.61	926.00
478.87	906.00
479.13	861.00
479.39	909.00
479.65	929.00
479.91	922.00
480.17	897.00
480.43	907.00
480.69	901.00
480.95	917.00
481.21	897.00
481.47	894.00
481.73	895.00
481.99	899.00
482.25	884.00
482.51	869.00
482.77	924.00
483.03	904.00
483.29	909.00
483.55	898.00
483.81	909.00
484.07	905.00
484.33	870.00
484.59	890.00
484.85	929.00
485.11	915.00
485.37	869.00
485.63	879.00
485.89	890.00
486.15	887.00
486.41	856.00
486.67	891.00
486.93	924.00
487.19	893.00
487.45	879.00
487.71	890.00
487.97	921.00
488.23	921.00
488.49	876.00
488.75	876.00
489.01	914.00
489.27	957.00
489.53	892.00
489.79	856.00
490.05	903.00
490.31	926.00
490.57	897.00
490.83	927.00
491.08	892.00
491.34	865.00
491.60	864.00
491.86	886.00
492.12	937.00
492.38	915.00
492.64	875.00
492.90	882.00
493.16	928.00
493.42	896.00
493.68	876.00
493.94	908.00
494.20	875.00
494.46	908.00
494.72	878.00
494.98	875.00
495.24	888.00
495.50	904.00
495.76	902.00
496.02	910.00
496.28	927.00
496.54	928.00
496.80	885.00
497.05	862.00
497.31	911.00
497.57	931.00
497.83	888.00
498.09	910.00
498.35	930.00
498.61	900.00
498.87	898.00
499.13	882.00
499.39	894.00
499.65	900.00
499.91	893.00
500.17	887.00
500.43	970.00
500.69	985.00
500.95	871.00
501.20	903.00
501.46	916.00
501.72	938.00
501.98	920.00
502.24	914.00
502.50	932.00
502.76	895.00
503.02	884.00
503.28	898.00
503.54	949.00
503.80	963.00
504.06	911.00
504.32	920.00
504.58	920.00
504.83	904.00
505.09	876.00
505.35	892.00
505.61	867.00
505.87	897.00
506.13	901.00
506.39	877.00
506.65	930.00
506.91	960.00
507.17	894.00
507.43	879.00
507.68	901.00
507.94	937.00
508.20	873.00
508.46	852.00
508.72	917.00
508.98	933.00
509.24	871.00
509.50	916.00
509.76	907.00
510.02	901.00
510.28	879.00
510.53	887.00
510.79	911.00
511.05	893.00
511.31	871.00
511.57	886.00
511.83	911.00
512.09	919.00
512.35	876.00
512.61	897.00
512.87	892.00
513.12	912.00
513.38	876.00
513.64	893.00
513.90	906.00
514.16	929.00
514.42	896.00
514.68	890.00
514.94	922.00
515.20	927.00
515.45	876.00
515.71	869.00
515.97	904.00
516.23	892.00
516.49	863.00
516.75	879.00
517.01	896.00
517.27	882.00
517.53	849.00
517.78	885.00
518.04	901.00
518.30	883.00
518.56	872.00
518.82	898.00
519.08	928.00
519.34	883.00
519.60	886.00
519.85	903.00
520.11	905.00
520.37	901.00
520.63	902.00
520.89	914.00
521.15	909.00
521.41	886.00
521.66	876.00
521.92	881.00
522.18	916.00
522.44	914.00
522.70	881.00
522.96	865.00
523.22	895.00
523.48	903.00
523.73	881.00
523.99	887.00
524.25	959.00
524.51	937.00
524.77	893.00
525.03	903.00
525.29	908.00
525.54	914.00
525.80	872.00
526.06	876.00
526.32	893.00
526.58	883.00
526.84	862.00
527.09	875.00
527.35	882.00
527.61	889.00
527.87	890.00
528.13	912.00
528.39	888.00
528.65	882.00
528.90	848.00
529.16	875.00
529.42	880.00
529.68	880.00
529.94	858.00
530.20	868.00
530.45	869.00
530.71	906.00
530.97	873.00
531.23	894.00
531.49	923.00
531.75	896.00
532.00	882.00
532.26	883.00
532.52	917.00
532.78	918.00
533.04	882.00
533.30	882.00
533.55	892.00
533.81	890.00
534.07	839.00
534.33	872.00
534.59	901.00
534.85	911.00
535.10	896.00
535.36	873.00
535.62	897.00
535.88	890.00
536.14	868.00
536.39	862.00
536.65	916.00
536.91	922.00
537.17	870.00
537.43	878.00
537.69	942.00
537.94	909.00
538.20	863.00
538.46	872.00
538.72	906.00
538.98	911.00
539.23	878.00
539.49	870.00
539.75	921.00
540.01	922.00
540.27	870.00
540.52	913.00
540.78	920.00
541.04	921.00
541.30	871.00
541.56	862.00
541.81	933.00
542.07	983.00
542.33	891.00
542.59	879.00
542.85	900.00
543.10	911.00
543.36	859.00
543.62	904.00
543.88	898.00
544.14	920.00
544.39	869.00
544.65	878.00
544.91	933.00
545.17	916.00
545.43	879.00
545.68	876.00
545.94	893.00
546.20	913.00
546.46	881.00
546.71	899.00
546.97	919.00
547.23	927.00
547.49	877.00
547.75	879.00
548.00	903.00
548.26	910.00
548.52	870.00
548.78	876.00
549.03	878.00
549.29	880.00
549.55	864.00
549.81	884.00
550.07	914.00
550.32	907.00
550.58	861.00
550.84	911.00
551.10	908.00
551.35	890.00
551.61	868.00
551.87	903.00
552.13	916.00
552.39	888.00
552.64	850.00
552.90	881.00
553.16	910.00
553.42	909.00
553.67	876.00
553.93	869.00
554.19	919.00
554.45	938.00
554.70	876.00
554.96	860.00
555.22	887.00
555.48	933.00
555.73	889.00
555.99	877.00
556.25	930.00
556.51	908.00
556.76	878.00
557.02	897.00
557.28	920.00
557.54	896.00
557.79	881.00
558.05	900.00
558.31	867.00
558.57	910.00
558.82	874.00
559.08	858.00
559.34	858.00
559.60	899.00
559.85	888.00
560.11	871.00
560.37	893.00
560.63	870.00
560.88	861.00
561.14	872.00
561.40	909.00
561.66	883.00
561.91	866.00
562.17	873.00
562.43	907.00
562.68	930.00
562.94	912.00
563.20	907.00
563.46	919.00
563.71	932.00
563.97	877.00
564.23	896.00
564.49	928.00
564.74	906.00
565.00	865.00
565.26	873.00
565.51	888.00
565.77	875.00
566.03	877.00
566.29	889.00
566.54	882.00
566.80	898.00
567.06	876.00
567.31	905.00
567.57	921.00
567.83	897.00
568.09	905.00
568.34	877.00
568.60	887.00
568.86	933.00
569.11	902.00
569.37	882.00
569.63	924.00
569.89	912.00
570.14	851.00
570.40	874.00
570.66	899.00
570.91	901.00
571.17	888.00
571.43	905.00
571.69	933.00
571.94	929.00
572.20	860.00
572.46	878.00
572.71	923.00
572.97	895.00
573.23	861.00
573.48	874.00
573.74	893.00
574.00	901.00
574.26	864.00
574.51	890.00
574.77	917.00
575.03	898.00
575.28	864.00
575.54	847.00
575.80	890.00
576.05	899.00
576.31	865.00
576.57	858.00
576.82	886.00
577.08	913.00
577.34	877.00
577.59	894.00
577.85	919.00
578.11	899.00
578.37	866.00
578.62	875.00
578.88	922.00
579.14	930.00
579.39	897.00
579.65	907.00
579.91	900.00
580.16	908.00
580.42	883.00
580.68	886.00
580.93	918.00
581.19	877.00
581.45	851.00
581.70	903.00
581.96	915.00
582.22	920.00
582.47	887.00
582.73	896.00
582.99	935.00
583.24	902.00
583.50	858.00
583.76	870.00
584.01	890.00
584.27	908.00
584.53	872.00
584.78	894.00
585.04	877.00
585.30	902.00
585.55	889.00
585.81	872.00
586.07	921.00
586.32	924.00
586.58	887.00
586.83	878.00
587.09	894.00
587.35	893.00
587.60	876.00
587.86	892.00
588.12	900.00
588.37	924.00
588.63	880.00
588.89	898.00
589.14	913.00
589.40	916.00
589.66	876.00
589.91	876.00
590.17	905.00
590.43	865.00
590.68	851.00
590.94	875.00
591.19	917.00
591.45	889.00
591.71	877.00
591.96	894.00
592.22	908.00
592.48	929.00
592.73	871.00
592.99	890.00
593.25	895.00
593.50	895.00
593.76	857.00
594.01	889.00
594.27	912.00
594.53	905.00
594.78	877.00
595.04	857.00
595.30	898.00
595.55	891.00
595.81	847.00
596.06	890.00
596.32	918.00
596.58	918.00
596.83	876.00
597.09	909.00
597.35	909.00
597.60	893.00
597.86	853.00
598.11	878.00
598.37	926.00
598.63	915.00
598.88	869.00
599.14	861.00
599.39	920.00
599.65	913.00
599.91	849.00
600.16	877.00
600.42	889.00
600.67	895.00
600.93	859.00
601.19	900.00
601.44	947.00
601.70	919.00
601.95	871.00
602.21	898.00
602.47	895.00
602.72	904.00
602.98	855.00
603.23	896.00
603.49	929.00
603.75	934.00
604.00	888.00
604.26	887.00
604.51	877.00
604.77	906.00
605.03	872.00
605.28	874.00
605.54	922.00
605.79	932.00
606.05	848.00
606.31	870.00
606.56	920.00
606.82	933.00
607.07	895.00
607.33	902.00
607.59	919.00
607.84	903.00
608.10	854.00
608.35	872.00
608.61	917.00
608.86	927.00
609.12	875.00
609.38	903.00
609.63	931.00
609.89	906.00
610.14	845.00
610.40	881.00
610.65	913.00
610.91	904.00
611.17	874.00
611.42	880.00
611.68	920.00
611.93	927.00
612.19	900.00
612.44	900.00
612.70	922.00
612.96	884.00
613.21	873.00
613.47	867.00
613.72	897.00
613.98	916.00
614.23	871.00
614.49	893.00
614.75	926.00
615.00	915.00
615.26	877.00
615.51	870.00
615.77	900.00
616.02	926.00
616.28	882.00
616.53	874.00
616.79	901.00
617.05	896.00
617.30	865.00
617.56	879.00
617.81	914.00
618.07	911.00
618.32	903.00
618.58	908.00
618.83	925.00
619.09	928.00
619.34	874.00
619.60	874.00
619.86	916.00
620.11	918.00
620.37	912.00
620.62	907.00
620.88	941.00
621.13	918.00
621.39	897.00
621.64	899.00
621.90	931.00
622.15	926.00
622.41	899.00
622.66	919.00
622.92	944.00
623.18	947.00
623.43	894.00
623.69	901.00
623.94	928.00
624.20	954.00
624.45	922.00
624.71	930.00
624.96	925.00
625.22	963.00
625.47	933.00
625.73	931.00
625.98	942.00
626.24	911.00
626.49	913.00
626.75	938.00
627.00	971.00
627.26	976.00
627.51	932.00
627.77	936.00
628.02	956.00
628.28	970.00
628.53	953.00
628.79	974.00
629.05	998.00
629.30	987.00
629.56	989.00
629.81	1026.00
630.07	1015.00
630.32	1013.00
630.58	1008.00
630.83	1028.00
631.09	1047.00
631.34	1043.00
631.60	1003.00
631.85	1018.00
632.11	1044.00
632.36	1077.00
632.62	1062.00
632.87	1069.00
633.13	1095.00
633.38	1088.00
633.64	1087.00
633.89	1100.00
634.15	1130.00
634.40	1180.00
634.66	1135.00
634.91	1129.00
635.17	1175.00
635.42	1192.00
635.68	1177.00
635.93	1182.00
636.18	1221.00
636.44	1231.00
636.69	1172.00
636.95	1150.00
637.20	1197.00
637.46	1242.00
637.71	1223.00
637.97	1202.00
638.22	1197.00
638.48	1202.00
638.73	1185.00
638.99	1168.00
639.24	1209.00
639.50	1196.00
639.75	1115.00
640.01	1150.00
640.26	1177.00
640.52	1157.00
640.77	1093.00
641.03	1092.00
641.28	1134.00
641.54	1127.00
641.79	1079.00
642.04	1082.00
642.30	1101.00
642.55	1090.00
642.81	1058.00
643.06	1053.00
643.32	1078.00
643.57	1045.00
643.83	976.00
644.08	949.00
644.34	970.00
644.59	1022.00
644.85	986.00
645.10	988.00
645.35	986.00
645.61	977.00
645.86	937.00
646.12	951.00
646.37	1004.00
646.63	990.00
646.88	889.00
647.14	936.00
647.39	947.00
647.65	958.00
647.90	921.00
648.15	953.00
648.41	946.00
648.66	944.00
648.92	886.00
649.17	919.00
649.43	954.00
649.68	933.00
649.94	916.00
650.19	899.00
650.44	910.00
650.70	901.00
650.95	872.00
651.21	906.00
651.46	936.00
651.72	929.00
651.97	890.00
652.23	887.00
652.48	907.00
652.73	931.00
652.99	886.00
653.24	901.00
653.50	890.00
653.75	878.00
654.01	869.00
654.26	884.00
654.51	892.00
654.77	927.00
655.02	903.00
655.28	869.00
655.53	869.00
655.79	911.00
656.04	892.00
656.29	893.00
656.55	892.00
656.80	906.00
657.06	860.00
657.31	869.00
657.56	879.00
657.82	878.00
658.07	864.00
658.33	897.00
658.58	903.00
658.84	906.00
659.09	865.00
659.34	870.00
659.60	893.00
659.85	893.00
660.11	875.00
660.36	876.00
660.61	897.00
660.87	859.00
661.12	846.00
661.38	875.00
661.63	903.00
661.88	918.00
662.14	890.00
662.39	883.00
662.65	935.00
662.90	943.00
663.15	862.00
663.41	891.00
663.66	931.00
663.92	932.00
664.17	869.00
664.42	888.00
664.68	914.00
664.93	913.00
665.19	868.00
665.44	871.00
665.69	876.00
665.95	893.00
666.20	860.00
666.45	891.00
666.71	884.00
666.96	897.00
667.22	851.00
667.47	872.00
667.72	871.00
667.98	888.00
668.23	860.00
668.49	898.00
668.74	912.00
668.99	902.00
669.25	872.00
669.50	878.00
669.75	894.00
670.01	911.00
670.26	862.00
670.52	872.00
670.77	910.00
671.02	888.00
671.28	863.00
671.53	879.00
671.78	910.00
672.04	901.00
672.29	875.00
672.54	876.00
672.80	896.00
673.05	908.00
673.31	852.00
673.56	901.00
673.81	934.00
674.07	892.00
674.32	876.00
674.57	879.00
674.83	896.00
675.08	903.00
675.33	882.00
675.59	891.00
675.84	921.00
676.09	875.00
676.35	874.00
676.60	906.00
676.86	922.00
677.11	930.00
677.36	889.00
677.62	888.00
677.87	930.00
678.12	952.00
678.38	868.00
678.63	886.00
678.88	918.00
679.14	932.00
679.39	857.00
679.64	893.00
679.90	881.00
680.15	904.00
680.40	890.00
680.66	882.00
680.91	906.00
681.16	891.00
681.42	867.00
681.67	867.00
681.92	904.00
682.18	926.00
682.43	863.00
682.68	875.00
682.94	901.00
683.19	879.00
683.44	869.00
683.70	898.00
683.95	900.00
684.20	896.00
684.46	874.00
684.71	889.00
684.96	902.00
685.22	918.00
685.47	878.00
685.72	891.00
685.98	913.00
686.23	871.00
686.48	853.00
686.74	912.00
686.99	936.00
687.24	906.00
687.50	865.00
687.75	875.00
688.00	901.00
688.25	909.00
688.51	893.00
688.76	922.00
689.01	889.00
689.27	880.00
689.52	838.00
689.77	869.00
690.03	872.00
690.28	882.00
690.53	875.00
690.79	888.00
691.04	890.00
691.29	904.00
691.54	852.00
691.80	885.00
692.05	896.00
692.30	889.00
692.56	867.00
692.81	898.00
693.06	888.00
693.32	886.00
693.57	871.00
693.82	894.00
694.07	912.00
694.33	901.00
694.58	861.00
694.83	884.00
695.09	869.00
695.34	900.00
695.59	894.00
695.84	878.00
696.10	915.00
696.35	935.00
696.60	858.00
696.86	878.00
697.11	905.00
697.36	898.00
697.61	875.00
697.87	896.00
698.12	885.00
698.37	901.00
698.63	889.00
698.88	881.00
699.13	912.00
699.38	890.00
699.64	873.00
699.89	892.00
700.14	884.00
700.39	896.00
700.65	879.00
700.90	913.00
701.15	904.00
701.40	918.00
701.66	861.00
701.91	885.00
702.16	889.00
702.42	869.00
702.67	864.00
702.92	883.00
703.17	901.00
703.43	883.00
703.68	872.00
703.93	921.00
704.18	938.00
704.44	903.00
704.69	877.00
704.94	894.00
705.19	897.00
705.45	924.00
705.70	898.00
705.95	873.00
706.20	865.00
706.46	903.00
706.71	874.00
706.96	877.00
707.21	892.00
707.47	903.00
707.72	895.00
707.97	902.00
708.22	918.00
708.48	930.00
708.73	862.00
708.98	851.00
709.23	886.00
709.49	890.00
709.74	877.00
709.99	893.00
710.24	896.00
710.50	907.00
710.75	889.00
711.00	899.00
711.25	909.00
711.50	886.00
711.76	860.00
712.01	877.00
712.26	886.00
712.51	891.00
712.77	874.00
713.02	877.00
713.27	875.00
713.52	887.00
713.78	867.00
714.03	902.00
714.28	888.00
714.53	899.00
714.78	865.00
715.04	892.00
715.29	904.00
715.54	902.00
715.79	854.00
716.05	896.00
716.30	912.00
716.55	912.00
716.80	890.00
717.05	917.00
717.31	909.00
717.56	905.00
717.81	889.00
718.06	869.00
718.31	870.00
718.57	896.00
718.82	879.00
719.07	902.00
719.32	887.00
719.57	916.00
719.83	876.00
720.08	898.00
720.33	885.00
720.58	860.00
720.83	853.00
721.09	917.00
721.34	903.00
721.59	919.00
721.84	868.00
722.09	898.00
722.35	918.00
722.60	893.00
722.85	857.00
723.10	882.00
723.35	874.00
723.61	891.00
723.86	897.00
724.11	883.00
724.36	889.00
724.61	881.00
724.87	885.00
725.12	879.00
725.37	882.00
725.62	867.00
725.87	859.00
726.12	853.00
726.38	869.00
726.63	923.00
726.88	873.00
727.13	898.00
727.38	876.00
727.64	907.00
727.89	873.00
728.14	871.00
728.39	852.00
728.64	897.00
728.89	868.00
729.15	895.00
729.40	902.00
729.65	924.00
729.90	868.00
730.15	898.00
730.40	907.00
730.66	896.00
730.91	876.00
731.16	874.00
731.41	882.00
731.66	916.00
731.91	881.00
732.17	913.00
732.42	927.00
732.67	898.00
732.92	864.00
733.17	898.00
733.42	897.00
733.68	877.00
733.93	864.00
734.18	892.00
734.43	868.00
734.68	882.00
734.93	862.00
735.18	876.00
735.44	884.00
735.69	906.00
735.94	859.00
736.19	871.00
736.44	872.00
736.69	916.00
736.95	865.00
737.20	899.00
737.45	915.00
737.70	886.00
737.95	885.00
738.20	887.00
738.45	892.00
738.70	888.00
738.96	851.00
739.21	890.00
739.46	908.00
739.71	915.00
739.96	878.00
740.21	884.00
740.46	952.00
740.72	936.00
740.97	882.00
741.22	910.00
741.47	881.00
741.72	890.00
741.97	855.00
742.22	884.00
742.47	898.00
742.73	898.00
742.98	868.00
743.23	877.00
743.48	868.00
743.73	898.00
743.98	885.00
744.23	887.00
744.48	887.00
744.74	872.00
744.99	854.00
745.24	901.00
745.49	884.00
745.74	910.00
745.99	860.00
746.24	884.00
746.49	873.00
746.74	882.00
747.00	877.00
747.25	882.00
747.50	855.00
747.75	867.00
748.00	841.00
748.25	854.00
748.50	870.00
748.75	918.00
749.00	912.00
749.26	922.00
749.51	896.00
749.76	901.00
750.01	842.00
750.26	895.00
750.51	933.00
750.76	920.00
751.01	865.00
751.26	877.00
751.51	905.00
751.77	911.00
752.02	885.00
752.27	878.00
752.52	889.00
752.77	896.00
753.02	866.00
753.27	896.00
753.52	884.00
753.77	894.00
754.02	869.00
754.27	878.00
754.52	862.00
754.78	904.00
755.03	875.00
755.28	891.00
755.53	889.00
755.78	884.00
756.03	854.00
756.28	894.00
756.53	900.00
756.78	909.00
757.03	875.00
757.28	885.00
757.53	906.00
757.79	881.00
758.04	866.00
758.29	917.00
758.54	896.00
758.79	897.00
759.04	855.00
759.29	858.00
759.54	860.00
759.79	895.00
760.04	881.00
760.29	872.00
760.54	863.00
760.79	893.00
761.04	853.00
761.29	866.00
761.55	890.00
761.80	902.00
762.05	859.00
762.30	886.00
762.55	885.00
762.80	908.00
763.05	898.00
763.30	904.00
763.55	908.00
763.80	898.00
764.05	858.00
764.30	895.00
764.55	925.00
764.80	899.00
765.05	863.00
765.30	892.00
765.55	890.00
765.80	891.00
766.05	840.00
766.30	880.00
766.56	892.00
766.81	895.00
767.06	885.00
767.31	891.00
767.56	879.00
767.81	891.00
768.06	877.00
768.31	902.00
768.56	892.00
768.81	946.00
769.06	884.00
769.31	907.00
769.56	887.00
769.81	907.00
770.06	855.00
770.31	873.00
770.56	884.00
770.81	870.00
771.06	854.00
771.31	889.00
771.56	894.00
771.81	902.00
772.06	859.00
772.31	901.00
772.56	901.00
772.81	925.00
773.06	861.00
773.31	889.00
773.56	891.00
773.81	858.00
774.06	852.00
774.31	893.00
774.56	909.00
774.81	910.00
775.06	875.00
775.31	903.00
775.56	909.00
775.81	891.00
776.06	860.00
776.31	870.00
776.56	890.00
776.82	901.00
777.07	867.00
777.32	869.00
777.57	896.00
777.82	954.00
778.07	885.00
778.32	868.00
778.57	901.00
778.82	918.00
779.07	870.00
779.32	865.00
779.57	865.00
779.82	883.00
780.07	871.00
780.32	883.00
780.56	880.00
780.81	930.00
781.06	859.00
781.31	873.00
781.56	910.00
781.81	901.00
782.06	871.00
782.31	904.00
782.56	883.00
782.81	915.00
783.06	872.00
783.31	878.00
783.56	873.00
783.81	905.00
784.06	871.00
784.31	875.00
784.56	860.00
784.81	912.00
785.06	886.00
785.31	899.00
785.56	868.00
785.81	868.00
786.06	843.00
786.31	870.00
786.56	863.00
786.81	886.00
787.06	877.00
787.31	875.00
787.56	875.00
787.81	891.00
788.06	856.00
788.31	903.00
788.56	869.00
788.81	914.00
789.06	866.00
789.31	882.00
789.56	892.00
789.81	893.00
790.06	862.00
790.31	903.00
790.56	881.00
790.80	882.00
791.05	846.00
791.30	857.00
791.55	876.00
791.80	883.00
792.05	864.00
792.30	865.00
792.55	878.00
792.80	889.00
793.05	877.00
793.30	880.00
793.55	891.00
793.80	887.00
794.05	864.00
794.30	879.00
794.55	893.00
794.80	907.00
795.05	861.00
795.30	863.00
795.54	858.00
795.79	892.00
796.04	864.00
796.29	881.00
796.54	867.00
796.79	902.00
797.04	866.00
797.29	886.00
797.54	915.00
797.79	919.00
798.04	871.00
798.29	878.00
798.54	859.00
798.79	882.00
799.04	858.00
799.29	879.00
799.53	882.00
799.78	888.00
800.03	872.00
800.28	853.00
800.53	854.00
800.78	926.00
801.03	883.00
801.28	862.00
801.53	866.00
801.78	899.00
802.03	876.00
802.28	898.00
802.52	919.00
802.77	925.00
803.02	904.00
803.27	916.00
803.52	876.00
803.77	890.00
804.02	897.00
804.27	912.00
804.52	887.00
804.77	927.00
805.02	898.00
805.27	918.00
805.51	904.00
805.76	919.00
806.01	879.00
806.26	894.00
806.51	894.00
806.76	925.00
807.01	883.00
807.26	871.00
807.51	898.00
807.76	875.00
808.00	874.00
808.25	908.00
808.50	922.00
808.75	891.00
809.00	871.00
809.25	893.00
809.50	897.00
809.75	908.00
810.00	886.00
810.24	869.00
810.49	848.00
810.74	880.00
810.99	883.00
811.24	881.00
811.49	894.00
811.74	909.00
811.99	837.00
812.24	881.00
812.48	880.00
812.73	866.00
812.98	835.00
813.23	852.00
813.48	875.00
813.73	887.00
813.98	841.00
814.23	868.00
814.47	867.00
814.72	883.00
814.97	864.00
815.22	892.00
815.47	872.00
815.72	883.00
815.97	842.00
816.22	861.00
816.46	892.00
816.71	900.00
816.96	881.00
817.21	907.00
817.46	886.00
817.71	909.00
817.96	876.00
818.20	880.00
818.45	861.00
818.70	889.00
818.95	851.00
819.20	875.00
819.45	890.00
819.70	898.00
819.94	864.00
820.19	880.00
820.44	882.00
820.69	921.00
820.94	871.00
821.19	900.00
821.44	938.00
821.68	949.00
821.93	889.00
822.18	903.00
822.43	908.00
822.68	914.00
822.93	880.00
823.17	885.00
823.42	901.00
823.67	889.00
823.92	865.00
824.17	893.00
824.42	892.00
824.67	905.00
824.91	878.00
825.16	876.00
825.41	890.00
825.66	872.00
825.91	848.00
826.16	878.00
826.40	877.00
826.65	885.00
826.90	857.00
827.15	884.00
827.40	889.00
827.65	918.00
827.89	841.00
828.14	882.00
828.39	885.00
828.64	896.00
828.89	864.00
829.13	886.00
829.38	874.00
829.63	905.00
829.88	866.00
830.13	871.00
830.38	868.00
830.62	878.00
830.87	858.00
831.12	894.00
831.37	907.00
831.62	922.00
831.86	859.00
832.11	866.00
832.36	860.00
832.61	908.00
832.86	883.00
833.10	883.00
833.35	886.00
833.60	914.00
833.85	874.00
834.10	897.00
834.35	919.00
834.59	929.00
834.84	864.00
835.09	898.00
835.34	872.00
835.59	877.00
835.83	885.00
836.08	881.00
836.33	887.00
836.58	906.00
836.83	863.00
837.07	888.00
837.32	896.00
837.57	881.00
837.82	857.00
838.06	884.00
838.31	909.00
838.56	917.00
838.81	866.00
839.06	888.00
839.30	885.00
839.55	910.00
839.80	872.00
840.05	886.00
840.30	908.00
840.54	929.00
840.79	862.00
841.04	894.00
841.29	887.00
841.53	908.00
841.78	880.00
842.03	860.00
842.28	843.00
842.53	872.00
842.77	865.00
843.02	893.00
843.27	894.00
843.52	905.00
843.76	883.00
844.01	892.00
844.26	879.00
844.51	908.00
844.75	868.00
845.00	861.00
845.25	874.00
845.50	900.00
845.75	876.00
845.99	893.00
846.24	904.00
846.49	897.00
846.74	857.00
846.98	870.00
847.23	884.00
847.48	892.00
847.73	861.00
847.97	878.00
848.22	905.00
848.47	909.00
848.72	863.00
848.96	876.00
849.21	895.00
849.46	874.00
849.71	866.00
849.95	888.00
850.20	872.00
850.45	902.00
850.70	867.00
850.94	894.00
851.19	877.00
851.44	885.00
851.69	833.00
851.93	874.00
852.18	899.00
852.43	888.00
852.68	880.00
852.92	906.00
853.17	926.00
853.42	928.00
853.66	893.00
853.91	908.00
854.16	895.00
854.41	936.00
854.65	893.00
854.90	900.00
855.15	884.00
855.40	896.00
855.64	878.00
855.89	892.00
856.14	883.00
856.39	873.00
856.63	866.00
856.88	881.00
857.13	868.00
857.37	870.00
857.62	841.00
857.87	854.00
858.12	878.00
858.36	918.00
858.61	838.00
858.86	866.00
859.10	878.00
859.35	890.00
859.60	841.00
859.85	846.00
860.09	849.00
860.34	897.00
860.59	877.00
860.83	879.00
861.08	888.00
861.33	938.00
861.58	882.00
861.82	869.00
862.07	872.00
862.32	888.00
862.56	868.00
862.81	878.00
863.06	888.00
863.30	890.00
863.55	872.00
863.80	888.00
864.05	899.00
864.29	885.00
864.54	879.00
864.79	889.00
865.03	889.00
865.28	905.00
865.53	853.00
865.77	850.00
866.02	894.00
866.27	913.00
866.51	879.00
866.76	866.00
867.01	856.00
867.26	906.00
867.50	872.00
867.75	858.00
868.00	885.00
868.24	888.00
868.49	872.00
868.74	883.00
868.98	857.00
869.23	895.00
869.48	888.00
869.72	869.00
869.97	880.00
870.22	907.00
870.46	879.00
870.71	899.00
870.96	898.00
871.20	895.00
871.45	854.00
871.70	878.00
871.94	919.00
872.19	934.00
872.44	896.00
872.68	886.00
872.93	884.00
873.18	894.00
873.42	866.00
873.67	897.00
873.92	917.00
874.16	894.00
874.41	865.00
874.66	907.00
874.90	900.00
875.15	911.00
875.40	893.00
875.64	886.00
875.89	881.00
876.14	897.00
876.38	869.00
876.63	884.00
876.88	899.00
877.12	900.00
877.37	854.00
877.62	886.00
877.86	887.00
878.11	905.00
878.36	852.00
878.60	877.00
878.85	877.00
879.09	884.00
879.34	863.00
879.59	892.00
879.83	913.00
880.08	932.00
880.33	888.00
880.57	901.00
880.82	904.00
881.07	901.00
881.31	878.00
881.56	869.00
881.80	874.00
882.05	903.00
882.30	860.00
882.54	871.00
882.79	916.00
883.04	948.00
883.28	887.00
883.53	859.00
883.77	888.00
884.02	893.00
884.27	842.00
884.51	859.00
884.76	877.00
885.01	917.00
885.25	852.00
885.50	900.00
885.74	888.00
885.99	898.00
886.24	855.00
886.48	878.00
886.73	906.00
886.98	922.00
887.22	890.00
887.47	887.00
887.71	897.00
887.96	890.00
888.21	880.00
888.45	877.00
888.70	887.00
888.94	925.00
889.19	874.00
889.44	886.00
889.68	884.00
889.93	902.00
890.17	876.00
890.42	869.00
890.67	907.00
890.91	962.00
891.16	869.00
891.40	850.00
891.65	880.00
891.90	916.00
892.14	837.00
892.39	876.00
892.63	875.00
892.88	907.00
893.13	866.00
893.37	873.00
893.62	868.00
893.86	899.00
894.11	872.00
894.36	869.00
894.60	862.00
894.85	859.00
895.09	863.00
895.34	902.00
895.59	895.00
895.83	887.00
896.08	851.00
896.32	846.00
896.57	880.00
896.81	881.00
897.06	849.00
897.31	880.00
897.55	914.00
897.80	888.00
898.04	849.00
898.29	876.00
898.53	885.00
898.78	904.00
899.03	879.00
899.27	870.00
899.52	893.00
899.76	920.00
900.01	859.00
900.25	869.00
900.50	880.00
900.75	891.00
900.99	877.00
901.24	941.00
901.48	907.00
901.73	908.00
901.97	862.00
902.22	886.00
902.47	902.00
902.71	900.00
902.96	871.00
903.20	884.00
903.45	889.00
903.69	890.00
903.94	885.00
904.18	855.00
904.43	884.00
904.68	918.00
904.92	844.00
905.17	870.00
905.41	890.00
905.66	908.00
905.90	893.00
906.15	881.00
906.39	894.00
906.64	900.00
906.88	849.00
907.13	862.00
907.38	907.00
907.62	923.00
907.87	856.00
908.11	880.00
908.36	865.00
908.60	901.00
908.85	857.00
909.09	883.00
909.34	897.00
909.58	898.00
909.83	871.00
910.07	877.00
910.32	920.00
910.56	949.00
910.81	871.00
911.06	902.00
911.30	909.00
911.55	888.00
911.79	861.00
912.04	864.00
912.28	868.00
912.53	897.00
912.77	870.00
913.02	876.00
913.26	892.00
913.51	889.00
913.75	879.00
914.00	860.00
914.24	872.00
914.49	892.00
914.73	876.00
914.98	889.00
915.22	917.00
915.47	914.00
915.71	861.00
915.96	886.00
916.20	891.00
916.45	875.00
916.69	857.00
916.94	870.00
917.18	885.00
917.43	878.00
917.67	837.00
917.92	848.00
918.16	896.00
918.41	915.00
918.65	850.00
918.90	842.00
919.14	853.00
919.39	876.00
919.63	864.00
919.88	862.00
920.12	899.00
920.37	894.00
920.61	850.00
920.86	874.00
921.10	906.00
921.35	877.00
921.59	836.00
921.84	877.00
922.08	898.00
922.33	914.00
922.57	852.00
922.82	859.00
923.06	888.00
923.31	893.00
923.55	847.00
923.80	874.00
924.04	878.00
924.29	904.00
924.53	862.00
924.78	881.00
925.02	880.00
925.27	886.00
925.51	867.00
925.76	892.00
926.00	903.00
926.25	884.00
926.49	862.00
926.73	896.00
926.98	896.00
927.22	916.00
927.47	877.00
927.71	874.00
927.96	897.00
928.20	896.00
928.45	869.00
928.69	922.00
928.94	907.00
929.18	899.00
929.43	896.00
929.67	889.00
929.91	890.00
930.16	883.00
930.40	848.00
930.65	848.00
930.89	872.00
931.14	916.00
931.38	879.00
931.63	899.00
931.87	903.00
932.12	905.00
932.36	861.00
932.60	869.00
932.85	892.00
933.09	893.00
933.34	857.00
933.58	888.00
933.83	881.00
934.07	894.00
934.32	867.00
934.56	901.00
934.80	926.00
935.05	941.00
935.29	885.00
935.54	902.00
935.78	906.00
936.03	895.00
936.27	837.00
936.52	857.00
936.76	887.00
937.00	898.00
937.25	867.00
937.49	889.00
937.74	910.00
937.98	915.00
938.23	853.00
938.47	863.00
938.71	888.00
938.96	887.00
939.20	858.00
939.45	868.00
939.69	872.00
939.94	889.00
940.18	849.00
940.42	870.00
940.67	890.00
940.91	875.00
941.16	863.00
941.40	859.00
941.64	853.00
941.89	880.00
942.13	839.00
942.38	887.00
942.62	957.00
942.87	932.00
943.11	883.00
943.35	869.00
943.60	891.00
943.84	919.00
944.09	890.00
944.33	902.00
944.57	919.00
944.82	886.00
945.06	863.00
945.31	889.00
945.55	885.00
945.79	914.00
946.04	861.00
946.28	878.00
946.53	876.00
946.77	885.00
947.01	841.00
947.26	902.00
947.50	886.00
947.75	894.00
947.99	875.00
948.23	891.00
948.48	895.00
948.72	893.00
948.97	866.00
949.21	873.00
949.45	881.00
949.70	916.00
949.94	887.00
950.18	897.00
950.43	891.00
950.67	904.00
950.92	870.00
951.16	878.00
951.40	886.00
951.65	903.00
951.89	881.00
952.13	892.00
952.38	896.00
952.62	904.00
952.87	844.00
953.11	883.00
953.35	918.00
953.60	897.00
953.84	839.00
954.08	851.00
954.33	880.00
954.57	886.00
954.82	878.00
955.06	866.00
955.30	872.00
955.55	870.00
955.79	880.00
956.03	878.00
956.28	871.00
956.52	873.00
956.76	875.00
957.01	894.00
957.25	888.00
957.50	901.00
957.74	841.00
957.98	865.00
958.23	901.00
958.47	898.00
958.71	892.00
958.96	907.00
959.20	911.00
959.44	893.00
959.69	866.00
959.93	875.00
960.17	894.00
960.42	895.00
960.66	882.00
960.90	895.00
961.15	884.00
961.39	890.00
961.64	862.00
961.88	842.00
962.12	901.00
962.37	895.00
962.61	860.00
962.85	862.00
963.10	892.00
963.34	892.00
963.58	866.00
963.83	876.00
964.07	892.00
964.31	905.00
964.56	881.00
964.80	865.00
965.04	882.00
965.29	888.00
965.53	843.00
965.77	856.00
966.02	838.00
966.26	866.00
966.50	850.00
966.74	877.00
966.99	911.00
967.23	901.00
967.47	878.00
967.72	883.00
967.96	893.00
968.20	890.00
968.45	849.00
968.69	867.00
968.93	898.00
969.18	898.00
969.42	892.00
969.66	876.00
969.91	864.00
970.15	910.00
970.39	847.00
970.64	883.00
970.88	898.00
971.12	892.00
971.36	877.00
971.61	866.00
971.85	879.00
972.09	884.00
972.34	856.00
972.58	871.00
972.82	906.00
973.07	921.00
973.31	852.00
973.55	857.00
973.79	911.00
974.04	937.00
974.28	886.00
974.52	873.00
974.77	870.00
975.01	899.00
975.25	876.00
975.50	887.00
975.74	888.00
975.98	885.00
976.22	853.00
976.47	871.00
976.71	899.00
976.95	905.00
977.20	893.00
977.44	879.00
977.68	896.00
977.92	908.00
978.17	861.00
978.41	861.00
978.65	905.00
978.90	875.00
979.14	869.00
979.38	885.00
979.62	878.00
979.87	872.00
980.11	842.00
980.35	870.00
980.59	881.00
980.84	884.00
981.08	865.00
981.32	884.00
981.57	881.00
981.81	878.00
982.05	882.00
982.29	875.00
982.54	867.00
982.78	892.00
983.02	861.00
983.26	896.00
983.51	922.00
983.75	918.00
983.99	867.00
984.23	892.00
984.48	899.00
984.72	915.00
984.96	870.00
985.20	874.00
985.45	919.00
985.69	910.00
985.93	865.00
986.17	899.00
986.42	897.00
986.66	884.00
986.90	836.00
987.14	849.00
987.39	872.00
987.63	873.00
987.87	843.00
988.11	868.00
988.36	894.00
988.60	910.00
988.84	886.00
989.08	855.00
989.33	912.00
989.57	904.00
989.81	858.00
990.05	857.00
990.30	881.00
990.54	870.00
990.78	855.00
991.02	853.00
991.27	880.00
991.51	891.00
991.75	856.00
991.99	891.00
992.23	876.00
992.48	873.00
992.72	857.00
992.96	875.00
993.20	868.00
993.45	878.00
993.69	888.00
993.93	862.00
994.17	900.00
994.41	893.00
994.66	852.00
994.90	877.00
995.14	912.00
995.38	904.00
995.63	879.00
995.87	859.00
996.11	918.00
996.35	908.00
996.59	845.00
996.84	847.00
997.08	885.00
997.32	872.00
997.56	857.00
997.80	830.00
998.05	868.00
998.29	864.00
998.53	842.00
998.77	862.00
999.01	885.00
999.26	894.00
999.50	867.00
999.74	856.00
999.98	886.00
1000.22	888.00
1000.47	849.00
1000.71	858.00
1000.95	877.00
1001.19	892.00
1001.43	890.00
1001.68	881.00
1001.92	885.00
1002.16	870.00
1002.40	836.00
1002.64	864.00
1002.89	894.00
1003.13	910.00
1003.37	880.00
1003.61	851.00
1003.85	876.00
1004.10	889.00
1004.34	862.00
1004.58	880.00
1004.82	898.00
1005.06	887.00
1005.30	851.00
1005.55	845.00
1005.79	886.00
1006.03	887.00
1006.27	870.00
1006.51	874.00
1006.76	882.00
1007.00	911.00
1007.24	876.00
1007.48	877.00
1007.72	905.00
1007.96	887.00
1008.21	889.00
1008.45	892.00
1008.69	906.00
1008.93	904.00
1009.17	863.00
1009.41	884.00
1009.66	911.00
1009.90	883.00
1010.14	854.00
1010.38	892.00
1010.62	899.00
1010.86	914.00
1011.10	873.00
1011.35	862.00
1011.59	870.00
1011.83	849.00
1012.07	847.00
1012.31	877.00
1012.55	884.00
1012.80	891.00
1013.04	877.00
1013.28	884.00
1013.52	866.00
1013.76	893.00
1014.00	837.00
1014.24	859.00
1014.49	901.00
1014.73	923.00
1014.97	899.00
1015.21	896.00
1015.45	920.00
1015.69	890.00
1015.93	873.00
1016.18	870.00
1016.42	910.00
1016.66	906.00
1016.90	859.00
1017.14	867.00
1017.38	871.00
1017.62	883.00
1017.87	875.00
1018.11	877.00
1018.35	876.00
1018.59	899.00
1018.83	858.00
1019.07	875.00
1019.31	908.00
1019.55	908.00
1019.80	859.00
1020.04	883.00
1020.28	885.00
1020.52	900.00
1020.76	857.00
1021.00	848.00
1021.24	878.00
1021.48	866.00
1021.73	876.00
1021.97	903.00
1022.21	910.00
1022.45	921.00
1022.69	865.00
1022.93	864.00
1023.17	902.00
1023.41	920.00
1023.65	890.00
1023.90	905.00
1024.14	920.00
1024.38	880.00
1024.62	854.00
1024.86	882.00
1025.10	894.00
1025.34	891.00
1025.58	845.00
1025.82	866.00
1026.07	904.00
1026.31	908.00
1026.55	872.00
1026.79	863.00
1027.03	892.00
1027.27	897.00
1027.51	852.00
1027.75	850.00
1027.99	864.00
1028.23	901.00
1028.47	890.00
1028.72	872.00
1028.96	892.00
1029.20	893.00
1029.44	884.00
1029.68	880.00
1029.92	878.00
1030.16	897.00
1030.40	846.00
1030.64	852.00
1030.88	865.00
1031.12	873.00
1031.37	836.00
1031.61	880.00
1031.85	909.00
1032.09	909.00
1032.33	880.00
1032.57	925.00
1032.81	890.00
1033.05	928.00
1033.29	887.00
1033.53	883.00
1033.77	924.00
1034.01	899.00
1034.25	884.00
1034.50	886.00
1034.74	896.00
1034.98	920.00
1035.22	889.00
1035.46	880.00
1035.70	928.00
1035.94	912.00
1036.18	871.00
1036.42	874.00
1036.66	859.00
1036.90	873.00
1037.14	840.00
1037.38	866.00
1037.62	893.00
1037.86	885.00
1038.10	877.00
1038.35	860.00
1038.59	909.00
1038.83	910.00
1039.07	891.00
1039.31	897.00
1039.55	872.00
1039.79	896.00
1040.03	844.00
1040.27	836.00
1040.51	907.00
1040.75	931.00
1040.99	887.00
1041.23	893.00
1041.47	900.00
1041.71	925.00
1041.95	870.00
1042.19	877.00
1042.43	924.00
1042.67	921.00
1042.91	885.00
1043.15	868.00
1043.39	921.00
1043.64	894.00
1043.88	873.00
1044.12	890.00
1044.36	953.00
1044.60	920.00
1044.84	881.00
1045.08	898.00
1045.32	896.00
1045.56	910.00
1045.80	875.00
1046.04	859.00
1046.28	903.00
1046.52	896.00
1046.76	843.00
1047.00	848.00
1047.24	899.00
1047.48	896.00
1047.72	872.00
1047.96	868.00
1048.20	897.00
1048.44	892.00
1048.68	832.00
1048.92	875.00
1049.16	897.00
1049.40	901.00
1049.64	880.00
1049.88	901.00
1050.12	912.00
1050.36	914.00
1050.60	869.00
1050.84	885.00
1051.08	896.00
1051.32	868.00
1051.56	850.00
1051.80	853.00
1052.04	865.00
1052.28	896.00
1052.52	847.00
1052.76	855.00
1053.00	881.00
1053.24	902.00
1053.48	850.00
1053.72	868.00
1053.96	899.00
1054.20	898.00
1054.44	881.00
1054.68	893.00
1054.92	898.00
1055.16	860.00
1055.40	861.00
1055.64	883.00
1055.88	911.00
1056.12	904.00
1056.36	831.00
1056.60	859.00
1056.84	898.00
1057.08	898.00
1057.32	882.00
1057.56	860.00
1057.80	880.00
1058.04	905.00
1058.28	861.00
1058.52	872.00
1058.76	908.00
1059.00	914.00
1059.24	859.00
1059.48	859.00
1059.72	898.00
1059.96	888.00
1060.20	886.00
1060.44	922.00
1060.68	919.00
1060.92	903.00
1061.16	861.00
1061.40	863.00
1061.64	877.00
1061.88	874.00
1062.11	858.00
1062.35	851.00
1062.59	878.00
1062.83	904.00
1063.07	878.00
1063.31	854.00
1063.55	880.00
1063.79	918.00
1064.03	865.00
1064.27	862.00
1064.51	901.00
1064.75	903.00
1064.99	880.00
1065.23	881.00
1065.47	878.00
1065.71	904.00
1065.95	868.00
1066.19	867.00
1066.43	917.00
1066.67	896.00
1066.91	889.00
1067.15	886.00
1067.38	883.00
1067.62	891.00
1067.86	859.00
1068.10	889.00
1068.34	932.00
1068.58	947.00
1068.82	881.00
1069.06	832.00
1069.30	876.00
1069.54	913.00
1069.78	889.00
1070.02	872.00
1070.26	904.00
1070.50	930.00
1070.74	869.00
1070.98	884.00
1071.21	903.00
1071.45	888.00
1071.69	843.00
1071.93	876.00
1072.17	922.00
1072.41	920.00
1072.65	893.00
1072.89	900.00
1073.13	901.00
1073.37	891.00
1073.61	865.00
1073.85	885.00
1074.09	854.00
1074.32	864.00
1074.56	867.00
1074.80	948.00
1075.04	1156.00
1075.28	1000.00
1075.52	870.00
1075.76	877.00
1076.00	926.00
1076.24	904.00
1076.48	878.00
1076.72	883.00
1076.96	918.00
1077.19	901.00
1077.43	851.00
1077.67	892.00
1077.91	891.00
1078.15	877.00
1078.39	875.00
1078.63	871.00
1078.87	876.00
1079.11	892.00
1079.35	860.00
1079.58	865.00
1079.82	887.00
1080.06	877.00
1080.30	856.00
1080.54	906.00
1080.78	925.00
1081.02	890.00
1081.26	881.00
1081.50	919.00
1081.74	904.00
1081.97	904.00
1082.21	879.00
1082.45	898.00
1082.69	898.00
1082.93	871.00
1083.17	864.00
1083.41	864.00
1083.65	919.00
1083.88	928.00
1084.12	885.00
1084.36	884.00
1084.60	892.00
1084.84	904.00
1085.08	865.00
1085.32	888.00
1085.56	912.00
1085.80	894.00
1086.03	875.00
1086.27	860.00
1086.51	891.00
1086.75	919.00
1086.99	886.00
1087.23	850.00
1087.47	891.00
1087.70	892.00
1087.94	869.00
1088.18	903.00
1088.42	930.00
1088.66	896.00
1088.90	848.00
1089.14	872.00
1089.38	887.00
1089.61	902.00
1089.85	878.00
1090.09	861.00
1090.33	901.00
1090.57	912.00
1090.81	824.00
1091.05	870.00
1091.28	904.00
1091.52	924.00
1091.76	874.00
1092.00	864.00
1092.24	888.00
1092.48	917.00
1092.71	855.00
1092.95	909.00
1093.19	896.00
1093.43	889.00
1093.67	869.00
1093.91	884.00
1094.15	895.00
1094.38	906.00
1094.62	854.00
1094.86	850.00
1095.10	885.00
1095.34	890.00
1095.58	857.00
1095.81	867.00
1096.05	903.00
1096.29	905.00
1096.53	847.00
1096.77	865.00
1097.01	875.00
1097.24	891.00
1097.48	855.00
1097.72	877.00
1097.96	898.00
1098.20	888.00
1098.44	849.00
1098.67	844.00
1098.91	889.00
1099.15	898.00
1099.39	850.00
1099.63	874.00
1099.86	890.00
1100.10	880.00
1100.34	858.00
1100.58	857.00
1100.82	877.00
1101.06	876.00
1101.29	842.00
1101.53	875.00
1101.77	898.00
1102.01	867.00
1102.25	862.00
1102.48	884.00
1102.72	916.00
1102.96	917.00
1103.20	856.00
1103.44	860.00
1103.67	881.00
1103.91	913.00
1104.15	849.00
1104.39	845.00
1104.63	889.00
1104.86	871.00
1105.10	859.00
1105.34	883.00
1105.58	876.00
1105.82	885.00
1106.05	873.00
1106.29	876.00
1106.53	877.00
1106.77	927.00
1107.01	851.00
1107.24	885.00
1107.48	948.00
1107.72	902.00
1107.96	835.00
1108.20	867.00
1108.43	877.00
1108.67	886.00
1108.91	877.00
1109.15	869.00
1109.39	881.00
1109.62	882.00
1109.86	848.00
1110.10	865.00
1110.34	925.00
1110.57	932.00
1110.81	873.00
1111.05	877.00
1111.29	915.00
1111.53	933.00
1111.76	879.00
1112.00	906.00
1112.24	912.00
1112.48	897.00
1112.71	848.00
1112.95	873.00
1113.19	923.00
1113.43	915.00
1113.66	852.00
1113.90	887.00
1114.14	890.00
1114.38	904.00
1114.62	863.00
1114.85	886.00
1115.09	903.00
1115.33	942.00
1115.57	881.00
1115.80	853.00
1116.04	894.00
1116.28	884.00
1116.52	855.00
1116.75	863.00
1116.99	918.00
1117.23	919.00
1117.47	894.00
1117.70	905.00
1117.94	954.00
1118.18	899.00
1118.42	866.00
1118.65	897.00
1118.89	906.00
1119.13	890.00
1119.37	854.00
1119.60	880.00
1119.84	912.00
>>>>>End Processed Spectral Data<<<<<
