SpectraSuite Data File
++++++++++++++++++++++++++++++++++++
Date: Fri Dec 06 16:17:45 CET 2024
User: student
Dark Spectrum Present: Yes
Reference Spectrum Present: Yes
Number of Sampled Component Spectra: 1
Spectrometers: HR4C155
Integration Time (usec): 100000 (HR4C155)
Spectra Averaged: 1 (HR4C155)
Boxcar Smoothing: 0 (HR4C155)
Correct for Electrical Dark: No (HR4C155)
Strobe/Lamp Enabled: No (HR4C155)
Correct for Detector Non-linearity: No (HR4C155)
Correct for Stray Light: No (HR4C155)
Number of Pixels in Processed Spectrum: 3648
>>>>>Begin Processed Spectral Data<<<<<
195.39	743.00
195.66	743.00
195.93	743.00
196.20	671.00
196.46	717.00
196.73	821.00
197.00	852.00
197.27	856.00
197.54	883.00
197.81	872.00
198.08	867.00
198.35	899.00
198.61	903.00
198.88	872.00
199.15	853.00
199.42	882.00
199.69	910.00
199.96	874.00
200.23	894.00
200.49	885.00
200.76	907.00
201.03	897.00
201.30	882.00
201.57	935.00
201.84	947.00
202.11	880.00
202.38	910.00
202.64	929.00
202.91	938.00
203.18	874.00
203.45	942.00
203.72	1012.00
203.99	933.00
204.25	919.00
204.52	924.00
204.79	946.00
205.06	965.00
205.33	897.00
205.60	918.00
205.87	948.00
206.13	937.00
206.40	915.00
206.67	905.00
206.94	924.00
207.21	924.00
207.48	903.00
207.75	904.00
208.01	959.00
208.28	945.00
208.55	888.00
208.82	915.00
209.09	926.00
209.36	959.00
209.62	913.00
209.89	937.00
210.16	957.00
210.43	968.00
210.70	905.00
210.97	928.00
211.23	952.00
211.50	971.00
211.77	908.00
212.04	908.00
212.31	922.00
212.58	958.00
212.84	917.00
213.11	909.00
213.38	889.00
213.65	921.00
213.92	894.00
214.18	915.00
214.45	970.00
214.72	966.00
214.99	901.00
215.26	929.00
215.53	897.00
215.79	938.00
216.06	930.00
216.33	942.00
216.60	913.00
216.87	963.00
217.13	882.00
217.40	899.00
217.67	934.00
217.94	969.00
218.21	899.00
218.48	928.00
218.74	995.00
219.01	948.00
219.28	872.00
219.55	882.00
219.82	939.00
220.08	953.00
220.35	918.00
220.62	909.00
220.89	970.00
221.16	991.00
221.42	925.00
221.69	929.00
221.96	932.00
222.23	950.00
222.50	941.00
222.76	955.00
223.03	939.00
223.30	914.00
223.57	896.00
223.84	887.00
224.10	911.00
224.37	926.00
224.64	888.00
224.91	892.00
225.18	929.00
225.44	934.00
225.71	913.00
225.98	921.00
226.25	941.00
226.51	969.00
226.78	915.00
227.05	902.00
227.32	924.00
227.59	933.00
227.85	903.00
228.12	910.00
228.39	952.00
228.66	972.00
228.92	948.00
229.19	927.00
229.46	935.00
229.73	914.00
230.00	900.00
230.26	924.00
230.53	952.00
230.80	941.00
231.07	872.00
231.33	887.00
231.60	919.00
231.87	943.00
232.14	905.00
232.41	943.00
232.67	942.00
232.94	955.00
233.21	908.00
233.48	911.00
233.74	926.00
234.01	913.00
234.28	878.00
234.55	906.00
234.81	894.00
235.08	943.00
235.35	912.00
235.62	915.00
235.88	926.00
236.15	950.00
236.42	918.00
236.69	922.00
236.95	939.00
237.22	918.00
237.49	901.00
237.76	904.00
238.02	959.00
238.29	976.00
238.56	907.00
238.83	901.00
239.09	911.00
239.36	957.00
239.63	923.00
239.90	933.00
240.16	971.00
240.43	993.00
240.70	917.00
240.97	911.00
241.23	924.00
241.50	928.00
241.77	902.00
242.04	905.00
242.30	887.00
242.57	925.00
242.84	902.00
243.11	918.00
243.37	905.00
243.64	981.00
243.91	913.00
244.18	905.00
244.44	894.00
244.71	908.00
244.98	901.00
245.24	915.00
245.51	919.00
245.78	956.00
246.05	888.00
246.31	902.00
246.58	947.00
246.85	925.00
247.12	900.00
247.38	930.00
247.65	943.00
247.92	958.00
248.18	894.00
248.45	909.00
248.72	935.00
248.99	934.00
249.25	886.00
249.52	914.00
249.79	953.00
250.05	949.00
250.32	916.00
250.59	911.00
250.86	919.00
251.12	914.00
251.39	883.00
251.66	907.00
251.92	950.00
252.19	955.00
252.46	896.00
252.73	938.00
252.99	963.00
253.26	964.00
253.53	906.00
253.79	909.00
254.06	924.00
254.33	922.00
254.60	898.00
254.86	905.00
255.13	945.00
255.40	977.00
255.66	917.00
255.93	946.00
256.20	947.00
256.46	971.00
256.73	924.00
257.00	926.00
257.26	951.00
257.53	967.00
257.80	917.00
258.07	921.00
258.33	974.00
258.60	960.00
258.87	907.00
259.13	924.00
259.40	916.00
259.67	950.00
259.93	918.00
260.20	937.00
260.47	953.00
260.73	918.00
261.00	903.00
261.27	916.00
261.53	943.00
261.80	916.00
262.07	886.00
262.34	918.00
262.60	886.00
262.87	923.00
263.14	909.00
263.40	939.00
263.67	916.00
263.94	929.00
264.20	908.00
264.47	889.00
264.74	903.00
265.00	912.00
265.27	885.00
265.54	917.00
265.80	953.00
266.07	966.00
266.34	920.00
266.60	904.00
266.87	922.00
267.14	938.00
267.40	888.00
267.67	879.00
267.94	950.00
268.20	933.00
268.47	873.00
268.74	889.00
269.00	914.00
269.27	887.00
269.54	856.00
269.80	876.00
270.07	936.00
270.33	904.00
270.60	895.00
270.87	927.00
271.13	916.00
271.40	926.00
271.67	848.00
271.93	845.00
272.20	914.00
272.47	893.00
272.73	867.00
273.00	929.00
273.27	927.00
273.53	955.00
273.80	899.00
274.07	888.00
274.33	900.00
274.60	933.00
274.86	895.00
275.13	893.00
275.40	908.00
275.66	972.00
275.93	902.00
276.20	890.00
276.46	911.00
276.73	904.00
277.00	892.00
277.26	922.00
277.53	939.00
277.79	911.00
278.06	883.00
278.33	930.00
278.59	939.00
278.86	899.00
279.13	909.00
279.39	914.00
279.66	944.00
279.93	951.00
280.19	899.00
280.46	908.00
280.72	909.00
280.99	930.00
281.26	894.00
281.52	891.00
281.79	923.00
282.05	919.00
282.32	906.00
282.59	900.00
282.85	948.00
283.12	942.00
283.39	912.00
283.65	915.00
283.92	921.00
284.18	950.00
284.45	908.00
284.72	915.00
284.98	907.00
285.25	918.00
285.51	946.00
285.78	942.00
286.05	920.00
286.31	914.00
286.58	878.00
286.84	905.00
287.11	917.00
287.38	928.00
287.64	913.00
287.91	900.00
288.17	933.00
288.44	924.00
288.71	862.00
288.97	887.00
289.24	933.00
289.50	915.00
289.77	915.00
290.04	882.00
290.30	904.00
290.57	942.00
290.83	884.00
291.10	880.00
291.37	917.00
291.63	916.00
291.90	945.00
292.16	918.00
292.43	940.00
292.70	918.00
292.96	868.00
293.23	884.00
293.49	900.00
293.76	926.00
294.02	890.00
294.29	894.00
294.56	930.00
294.82	934.00
295.09	893.00
295.35	888.00
295.62	954.00
295.89	962.00
296.15	880.00
296.42	878.00
296.68	899.00
296.95	905.00
297.21	916.00
297.48	888.00
297.75	927.00
298.01	959.00
298.28	901.00
298.54	909.00
298.81	938.00
299.07	936.00
299.34	865.00
299.61	903.00
299.87	935.00
300.14	928.00
300.40	940.00
300.67	916.00
300.93	913.00
301.20	955.00
301.46	891.00
301.73	913.00
302.00	927.00
302.26	907.00
302.53	907.00
302.79	919.00
303.06	942.00
303.32	985.00
303.59	900.00
303.85	885.00
304.12	900.00
304.39	919.00
304.65	903.00
304.92	909.00
305.18	919.00
305.45	926.00
305.71	880.00
305.98	906.00
306.24	917.00
306.51	916.00
306.77	917.00
307.04	913.00
307.31	946.00
307.57	945.00
307.84	853.00
308.10	898.00
308.37	883.00
308.63	907.00
308.90	892.00
309.16	898.00
309.43	937.00
309.69	906.00
309.96	903.00
310.22	898.00
310.49	911.00
310.76	921.00
311.02	871.00
311.29	899.00
311.55	914.00
311.82	918.00
312.08	906.00
312.35	898.00
312.61	929.00
312.88	959.00
313.14	893.00
313.41	886.00
313.67	876.00
313.94	906.00
314.20	911.00
314.47	905.00
314.73	884.00
315.00	899.00
315.26	873.00
315.53	916.00
315.79	935.00
316.06	932.00
316.32	903.00
316.59	913.00
316.85	904.00
317.12	910.00
317.39	863.00
317.65	898.00
317.92	909.00
318.18	936.00
318.45	899.00
318.71	947.00
318.98	948.00
319.24	916.00
319.51	897.00
319.77	898.00
320.04	897.00
320.30	915.00
320.57	893.00
320.83	884.00
321.10	883.00
321.36	891.00
321.63	869.00
321.89	886.00
322.16	940.00
322.42	933.00
322.69	879.00
322.95	891.00
323.22	928.00
323.48	939.00
323.75	888.00
324.01	905.00
324.28	919.00
324.54	920.00
324.80	911.00
325.07	930.00
325.33	925.00
325.60	903.00
325.86	884.00
326.13	893.00
326.39	905.00
326.66	906.00
326.92	845.00
327.19	894.00
327.45	962.00
327.72	957.00
327.98	902.00
328.25	883.00
328.51	919.00
328.78	933.00
329.04	890.00
329.31	903.00
329.57	897.00
329.84	901.00
330.10	882.00
330.37	911.00
330.63	958.00
330.89	956.00
331.16	900.00
331.42	898.00
331.69	964.00
331.95	932.00
332.22	914.00
332.48	936.00
332.75	918.00
333.01	877.00
333.28	873.00
333.54	882.00
333.81	912.00
334.07	929.00
334.34	897.00
334.60	908.00
334.86	943.00
335.13	963.00
335.39	914.00
335.66	907.00
335.92	938.00
336.19	933.00
336.45	877.00
336.72	880.00
336.98	902.00
337.24	934.00
337.51	884.00
337.77	890.00
338.04	908.00
338.30	914.00
338.57	891.00
338.83	910.00
339.10	936.00
339.36	926.00
339.63	900.00
339.89	876.00
340.15	906.00
340.42	939.00
340.68	920.00
340.95	899.00
341.21	912.00
341.48	920.00
341.74	879.00
342.00	876.00
342.27	908.00
342.53	915.00
342.80	879.00
343.06	892.00
343.33	919.00
343.59	933.00
343.85	891.00
344.12	902.00
344.38	940.00
344.65	950.00
344.91	903.00
345.18	903.00
345.44	917.00
345.70	910.00
345.97	868.00
346.23	889.00
346.50	925.00
346.76	936.00
347.03	917.00
347.29	909.00
347.55	916.00
347.82	911.00
348.08	881.00
348.35	883.00
348.61	954.00
348.87	949.00
349.14	880.00
349.40	868.00
349.67	920.00
349.93	907.00
350.20	899.00
350.46	891.00
350.72	918.00
350.99	923.00
351.25	904.00
351.52	885.00
351.78	883.00
352.04	907.00
352.31	901.00
352.57	903.00
352.84	892.00
353.10	918.00
353.36	894.00
353.63	900.00
353.89	907.00
354.16	918.00
354.42	915.00
354.68	920.00
354.95	949.00
355.21	923.00
355.48	883.00
355.74	895.00
356.00	946.00
356.27	960.00
356.53	895.00
356.80	889.00
357.06	911.00
357.32	931.00
357.59	919.00
357.85	936.00
358.11	952.00
358.38	945.00
358.64	895.00
358.91	905.00
359.17	922.00
359.43	934.00
359.70	917.00
359.96	906.00
360.22	928.00
360.49	895.00
360.75	877.00
361.02	876.00
361.28	903.00
361.54	921.00
361.81	870.00
362.07	893.00
362.33	907.00
362.60	910.00
362.86	883.00
363.13	917.00
363.39	915.00
363.65	930.00
363.92	854.00
364.18	864.00
364.44	910.00
364.71	924.00
364.97	888.00
365.24	887.00
365.50	914.00
365.76	932.00
366.03	899.00
366.29	918.00
366.55	918.00
366.82	911.00
367.08	856.00
367.34	884.00
367.61	922.00
367.87	918.00
368.13	905.00
368.40	912.00
368.66	974.00
368.93	963.00
369.19	874.00
369.45	885.00
369.72	928.00
369.98	909.00
370.24	867.00
370.51	889.00
370.77	929.00
371.03	929.00
371.30	903.00
371.56	925.00
371.82	935.00
372.09	913.00
372.35	918.00
372.61	916.00
372.88	918.00
373.14	927.00
373.40	900.00
373.67	903.00
373.93	917.00
374.19	937.00
374.46	877.00
374.72	873.00
374.98	901.00
375.25	909.00
375.51	915.00
375.77	938.00
376.04	939.00
376.30	942.00
376.56	896.00
376.83	910.00
377.09	930.00
377.35	908.00
377.62	883.00
377.88	883.00
378.14	902.00
378.41	934.00
378.67	897.00
378.93	885.00
379.20	920.00
379.46	901.00
379.72	889.00
379.99	887.00
380.25	890.00
380.51	875.00
380.77	881.00
381.04	906.00
381.30	938.00
381.56	964.00
381.83	928.00
382.09	893.00
382.35	891.00
382.62	918.00
382.88	908.00
383.14	909.00
383.41	914.00
383.67	907.00
383.93	900.00
384.20	898.00
384.46	927.00
384.72	940.00
384.98	892.00
385.25	926.00
385.51	945.00
385.77	921.00
386.04	891.00
386.30	869.00
386.56	924.00
386.82	969.00
387.09	895.00
387.35	929.00
387.61	999.00
387.88	941.00
388.14	910.00
388.40	905.00
388.67	895.00
388.93	920.00
389.19	897.00
389.45	898.00
389.72	926.00
389.98	937.00
390.24	909.00
390.51	884.00
390.77	930.00
391.03	936.00
391.29	875.00
391.56	905.00
391.82	902.00
392.08	930.00
392.35	891.00
392.61	881.00
392.87	912.00
393.13	921.00
393.40	892.00
393.66	904.00
393.92	914.00
394.18	927.00
394.45	868.00
394.71	892.00
394.97	908.00
395.24	893.00
395.50	884.00
395.76	906.00
396.02	910.00
396.29	920.00
396.55	871.00
396.81	860.00
397.07	900.00
397.34	876.00
397.60	887.00
397.86	885.00
398.12	916.00
398.39	944.00
398.65	883.00
398.91	902.00
399.17	928.00
399.44	873.00
399.70	833.00
399.96	868.00
400.22	903.00
400.49	939.00
400.75	909.00
401.01	892.00
401.27	900.00
401.54	932.00
401.80	894.00
402.06	889.00
402.32	929.00
402.59	913.00
402.85	887.00
403.11	887.00
403.37	882.00
403.64	933.00
403.90	882.00
404.16	905.00
404.42	915.00
404.69	891.00
404.95	877.00
405.21	873.00
405.47	909.00
405.74	932.00
406.00	878.00
406.26	887.00
406.52	921.00
406.79	926.00
407.05	876.00
407.31	903.00
407.57	908.00
407.83	922.00
408.10	861.00
408.36	873.00
408.62	912.00
408.88	907.00
409.15	883.00
409.41	862.00
409.67	881.00
409.93	921.00
410.20	910.00
410.46	885.00
410.72	887.00
410.98	909.00
411.24	892.00
411.51	901.00
411.77	894.00
412.03	909.00
412.29	913.00
412.55	926.00
412.82	918.00
413.08	922.00
413.34	906.00
413.60	903.00
413.87	918.00
414.13	922.00
414.39	882.00
414.65	914.00
414.91	914.00
415.18	891.00
415.44	871.00
415.70	878.00
415.96	901.00
416.22	914.00
416.49	889.00
416.75	894.00
417.01	910.00
417.27	913.00
417.53	902.00
417.80	904.00
418.06	936.00
418.32	933.00
418.58	871.00
418.84	885.00
419.11	919.00
419.37	910.00
419.63	876.00
419.89	887.00
420.15	899.00
420.42	899.00
420.68	873.00
420.94	916.00
421.20	901.00
421.46	917.00
421.72	900.00
421.99	897.00
422.25	923.00
422.51	927.00
422.77	898.00
423.03	920.00
423.30	924.00
423.56	936.00
423.82	913.00
424.08	904.00
424.34	924.00
424.60	916.00
424.87	883.00
425.13	878.00
425.39	894.00
425.65	903.00
425.91	880.00
426.18	922.00
426.44	922.00
426.70	881.00
426.96	837.00
427.22	841.00
427.48	877.00
427.75	922.00
428.01	865.00
428.27	893.00
428.53	929.00
428.79	899.00
429.05	867.00
429.32	888.00
429.58	951.00
429.84	903.00
430.10	893.00
430.36	889.00
430.62	923.00
430.88	921.00
431.15	897.00
431.41	892.00
431.67	918.00
431.93	890.00
432.19	863.00
432.45	884.00
432.72	909.00
432.98	916.00
433.24	922.00
433.50	1002.00
433.76	901.00
434.02	895.00
434.28	868.00
434.55	895.00
434.81	890.00
435.07	899.00
435.33	852.00
435.59	882.00
435.85	908.00
436.11	906.00
436.38	859.00
436.64	874.00
436.90	889.00
437.16	898.00
437.42	895.00
437.68	899.00
437.94	908.00
438.21	910.00
438.47	909.00
438.73	899.00
438.99	889.00
439.25	916.00
439.51	888.00
439.77	898.00
440.03	902.00
440.30	922.00
440.56	882.00
440.82	923.00
441.08	923.00
441.34	905.00
441.60	862.00
441.86	890.00
442.12	910.00
442.39	918.00
442.65	857.00
442.91	877.00
443.17	897.00
443.43	911.00
443.69	894.00
443.95	868.00
444.21	878.00
444.47	912.00
444.74	853.00
445.00	879.00
445.26	878.00
445.52	885.00
445.78	881.00
446.04	889.00
446.30	927.00
446.56	919.00
446.82	877.00
447.09	879.00
447.35	917.00
447.61	916.00
447.87	884.00
448.13	898.00
448.39	952.00
448.65	933.00
448.91	882.00
449.17	885.00
449.43	893.00
449.70	889.00
449.96	873.00
450.22	891.00
450.48	904.00
450.74	932.00
451.00	892.00
451.26	894.00
451.52	920.00
451.78	898.00
452.04	882.00
452.31	906.00
452.57	898.00
452.83	882.00
453.09	872.00
453.35	890.00
453.61	915.00
453.87	908.00
454.13	921.00
454.39	924.00
454.65	970.00
454.91	933.00
455.17	869.00
455.44	893.00
455.70	930.00
455.96	910.00
456.22	879.00
456.48	900.00
456.74	904.00
457.00	861.00
457.26	837.00
457.52	894.00
457.78	910.00
458.04	921.00
458.30	871.00
458.56	891.00
458.82	887.00
459.09	885.00
459.35	831.00
459.61	858.00
459.87	922.00
460.13	937.00
460.39	879.00
460.65	868.00
460.91	935.00
461.17	900.00
461.43	873.00
461.69	890.00
461.95	913.00
462.21	902.00
462.47	892.00
462.73	918.00
462.99	932.00
463.26	900.00
463.52	857.00
463.78	864.00
464.04	891.00
464.30	893.00
464.56	865.00
464.82	897.00
465.08	940.00
465.34	923.00
465.60	882.00
465.86	884.00
466.12	893.00
466.38	887.00
466.64	865.00
466.90	884.00
467.16	897.00
467.42	890.00
467.68	881.00
467.94	894.00
468.20	924.00
468.46	904.00
468.72	872.00
468.98	902.00
469.25	931.00
469.51	888.00
469.77	908.00
470.03	910.00
470.29	910.00
470.55	906.00
470.81	903.00
471.07	902.00
471.33	907.00
471.59	926.00
471.85	905.00
472.11	904.00
472.37	918.00
472.63	915.00
472.89	903.00
473.15	879.00
473.41	903.00
473.67	901.00
473.93	849.00
474.19	858.00
474.45	880.00
474.71	905.00
474.97	873.00
475.23	877.00
475.49	894.00
475.75	884.00
476.01	895.00
476.27	906.00
476.53	930.00
476.79	913.00
477.05	885.00
477.31	879.00
477.57	899.00
477.83	893.00
478.09	856.00
478.35	903.00
478.61	944.00
478.87	895.00
479.13	861.00
479.39	909.00
479.65	928.00
479.91	904.00
480.17	886.00
480.43	918.00
480.69	905.00
480.95	901.00
481.21	869.00
481.47	877.00
481.73	889.00
481.99	895.00
482.25	864.00
482.51	864.00
482.77	917.00
483.03	917.00
483.29	885.00
483.55	883.00
483.81	926.00
484.07	912.00
484.33	872.00
484.59	883.00
484.85	912.00
485.11	914.00
485.37	884.00
485.63	874.00
485.89	905.00
486.15	904.00
486.41	861.00
486.67	878.00
486.93	915.00
487.19	900.00
487.45	881.00
487.71	867.00
487.97	915.00
488.23	907.00
488.49	866.00
488.75	875.00
489.01	901.00
489.27	928.00
489.53	885.00
489.79	880.00
490.05	877.00
490.31	915.00
490.57	908.00
490.83	954.00
491.08	901.00
491.34	891.00
491.60	866.00
491.86	895.00
492.12	946.00
492.38	935.00
492.64	881.00
492.90	868.00
493.16	925.00
493.42	883.00
493.68	857.00
493.94	902.00
494.20	887.00
494.46	922.00
494.72	873.00
494.98	897.00
495.24	891.00
495.50	922.00
495.76	908.00
496.02	903.00
496.28	919.00
496.54	918.00
496.80	877.00
497.05	861.00
497.31	923.00
497.57	919.00
497.83	882.00
498.09	921.00
498.35	929.00
498.61	925.00
498.87	902.00
499.13	903.00
499.39	916.00
499.65	900.00
499.91	897.00
500.17	873.00
500.43	955.00
500.69	988.00
500.95	879.00
501.20	905.00
501.46	926.00
501.72	925.00
501.98	906.00
502.24	917.00
502.50	950.00
502.76	915.00
503.02	884.00
503.28	894.00
503.54	959.00
503.80	954.00
504.06	911.00
504.32	914.00
504.58	919.00
504.83	908.00
505.09	856.00
505.35	883.00
505.61	884.00
505.87	887.00
506.13	894.00
506.39	888.00
506.65	926.00
506.91	961.00
507.17	899.00
507.43	886.00
507.68	902.00
507.94	924.00
508.20	900.00
508.46	868.00
508.72	922.00
508.98	933.00
509.24	866.00
509.50	901.00
509.76	888.00
510.02	897.00
510.28	860.00
510.53	881.00
510.79	935.00
511.05	923.00
511.31	884.00
511.57	892.00
511.83	903.00
512.09	931.00
512.35	879.00
512.61	900.00
512.87	918.00
513.12	907.00
513.38	857.00
513.64	899.00
513.90	921.00
514.16	936.00
514.42	903.00
514.68	910.00
514.94	934.00
515.20	923.00
515.45	875.00
515.71	869.00
515.97	898.00
516.23	901.00
516.49	888.00
516.75	866.00
517.01	875.00
517.27	909.00
517.53	872.00
517.78	878.00
518.04	910.00
518.30	886.00
518.56	853.00
518.82	906.00
519.08	954.00
519.34	886.00
519.60	883.00
519.85	906.00
520.11	915.00
520.37	916.00
520.63	892.00
520.89	905.00
521.15	908.00
521.41	910.00
521.66	876.00
521.92	889.00
522.18	929.00
522.44	928.00
522.70	890.00
522.96	866.00
523.22	914.00
523.48	894.00
523.73	875.00
523.99	882.00
524.25	948.00
524.51	938.00
524.77	883.00
525.03	888.00
525.29	917.00
525.54	918.00
525.80	885.00
526.06	880.00
526.32	880.00
526.58	885.00
526.84	877.00
527.09	876.00
527.35	882.00
527.61	874.00
527.87	859.00
528.13	904.00
528.39	903.00
528.65	895.00
528.90	860.00
529.16	874.00
529.42	894.00
529.68	888.00
529.94	863.00
530.20	889.00
530.45	886.00
530.71	898.00
530.97	862.00
531.23	867.00
531.49	917.00
531.75	898.00
532.00	885.00
532.26	864.00
532.52	923.00
532.78	915.00
533.04	886.00
533.30	895.00
533.55	917.00
533.81	906.00
534.07	858.00
534.33	881.00
534.59	925.00
534.85	913.00
535.10	876.00
535.36	870.00
535.62	904.00
535.88	887.00
536.14	847.00
536.39	878.00
536.65	935.00
536.91	930.00
537.17	871.00
537.43	880.00
537.69	931.00
537.94	906.00
538.20	857.00
538.46	880.00
538.72	900.00
538.98	906.00
539.23	879.00
539.49	870.00
539.75	913.00
540.01	905.00
540.27	877.00
540.52	905.00
540.78	921.00
541.04	919.00
541.30	868.00
541.56	850.00
541.81	933.00
542.07	983.00
542.33	884.00
542.59	889.00
542.85	896.00
543.10	901.00
543.36	849.00
543.62	885.00
543.88	899.00
544.14	895.00
544.39	874.00
544.65	884.00
544.91	936.00
545.17	916.00
545.43	877.00
545.68	887.00
545.94	923.00
546.20	920.00
546.46	859.00
546.71	872.00
546.97	910.00
547.23	914.00
547.49	878.00
547.75	880.00
548.00	904.00
548.26	933.00
548.52	869.00
548.78	872.00
549.03	901.00
549.29	887.00
549.55	846.00
549.81	876.00
550.07	906.00
550.32	902.00
550.58	845.00
550.84	898.00
551.10	910.00
551.35	911.00
551.61	885.00
551.87	905.00
552.13	924.00
552.39	900.00
552.64	857.00
552.90	875.00
553.16	893.00
553.42	890.00
553.67	843.00
553.93	868.00
554.19	910.00
554.45	938.00
554.70	894.00
554.96	864.00
555.22	902.00
555.48	908.00
555.73	866.00
555.99	868.00
556.25	917.00
556.51	902.00
556.76	880.00
557.02	903.00
557.28	925.00
557.54	905.00
557.79	861.00
558.05	888.00
558.31	897.00
558.57	920.00
558.82	881.00
559.08	864.00
559.34	865.00
559.60	904.00
559.85	893.00
560.11	878.00
560.37	885.00
560.63	894.00
560.88	850.00
561.14	875.00
561.40	913.00
561.66	874.00
561.91	865.00
562.17	892.00
562.43	902.00
562.68	916.00
562.94	896.00
563.20	908.00
563.46	928.00
563.71	931.00
563.97	881.00
564.23	903.00
564.49	928.00
564.74	902.00
565.00	860.00
565.26	888.00
565.51	888.00
565.77	885.00
566.03	850.00
566.29	876.00
566.54	875.00
566.80	886.00
567.06	865.00
567.31	910.00
567.57	920.00
567.83	882.00
568.09	887.00
568.34	870.00
568.60	881.00
568.86	931.00
569.11	903.00
569.37	870.00
569.63	902.00
569.89	916.00
570.14	838.00
570.40	870.00
570.66	909.00
570.91	914.00
571.17	875.00
571.43	902.00
571.69	933.00
571.94	933.00
572.20	861.00
572.46	875.00
572.71	912.00
572.97	913.00
573.23	868.00
573.48	874.00
573.74	900.00
574.00	907.00
574.26	861.00
574.51	881.00
574.77	913.00
575.03	895.00
575.28	867.00
575.54	862.00
575.80	887.00
576.05	888.00
576.31	854.00
576.57	854.00
576.82	892.00
577.08	903.00
577.34	857.00
577.59	860.00
577.85	914.00
578.11	874.00
578.37	879.00
578.62	877.00
578.88	916.00
579.14	917.00
579.39	893.00
579.65	896.00
579.91	907.00
580.16	931.00
580.42	878.00
580.68	887.00
580.93	910.00
581.19	892.00
581.45	856.00
581.70	900.00
581.96	912.00
582.22	921.00
582.47	889.00
582.73	902.00
582.99	920.00
583.24	903.00
583.50	850.00
583.76	864.00
584.01	885.00
584.27	899.00
584.53	887.00
584.78	898.00
585.04	882.00
585.30	905.00
585.55	890.00
585.81	879.00
586.07	936.00
586.32	921.00
586.58	891.00
586.83	885.00
587.09	905.00
587.35	894.00
587.60	865.00
587.86	868.00
588.12	897.00
588.37	923.00
588.63	887.00
588.89	897.00
589.14	917.00
589.40	923.00
589.66	877.00
589.91	881.00
590.17	901.00
590.43	858.00
590.68	855.00
590.94	883.00
591.19	923.00
591.45	897.00
591.71	861.00
591.96	879.00
592.22	905.00
592.48	919.00
592.73	856.00
592.99	861.00
593.25	889.00
593.50	909.00
593.76	865.00
594.01	881.00
594.27	900.00
594.53	884.00
594.78	866.00
595.04	873.00
595.30	892.00
595.55	889.00
595.81	863.00
596.06	897.00
596.32	932.00
596.58	927.00
596.83	875.00
597.09	887.00
597.35	903.00
597.60	889.00
597.86	854.00
598.11	898.00
598.37	923.00
598.63	915.00
598.88	858.00
599.14	858.00
599.39	917.00
599.65	907.00
599.91	830.00
600.16	858.00
600.42	892.00
600.67	916.00
600.93	871.00
601.19	904.00
601.44	948.00
601.70	923.00
601.95	884.00
602.21	896.00
602.47	878.00
602.72	892.00
602.98	871.00
603.23	890.00
603.49	917.00
603.75	929.00
604.00	880.00
604.26	876.00
604.51	869.00
604.77	927.00
605.03	871.00
605.28	876.00
605.54	933.00
605.79	935.00
606.05	852.00
606.31	874.00
606.56	913.00
606.82	931.00
607.07	899.00
607.33	888.00
607.59	892.00
607.84	885.00
608.10	863.00
608.35	888.00
608.61	900.00
608.86	908.00
609.12	874.00
609.38	904.00
609.63	934.00
609.89	919.00
610.14	859.00
610.40	883.00
610.65	888.00
610.91	911.00
611.17	854.00
611.42	884.00
611.68	927.00
611.93	931.00
612.19	882.00
612.44	892.00
612.70	902.00
612.96	893.00
613.21	868.00
613.47	874.00
613.72	893.00
613.98	913.00
614.23	889.00
614.49	904.00
614.75	914.00
615.00	900.00
615.26	876.00
615.51	858.00
615.77	900.00
616.02	913.00
616.28	886.00
616.53	902.00
616.79	904.00
617.05	884.00
617.30	855.00
617.56	882.00
617.81	914.00
618.07	905.00
618.32	877.00
618.58	903.00
618.83	914.00
619.09	934.00
619.34	883.00
619.60	892.00
619.86	925.00
620.11	943.00
620.37	898.00
620.62	880.00
620.88	911.00
621.13	909.00
621.39	889.00
621.64	903.00
621.90	917.00
622.15	907.00
622.41	877.00
622.66	884.00
622.92	910.00
623.18	916.00
623.43	874.00
623.69	888.00
623.94	925.00
624.20	919.00
624.45	898.00
624.71	903.00
624.96	904.00
625.22	934.00
625.47	894.00
625.73	897.00
625.98	919.00
626.24	921.00
626.49	876.00
626.75	897.00
627.00	932.00
627.26	940.00
627.51	908.00
627.77	944.00
628.02	955.00
628.28	964.00
628.53	910.00
628.79	942.00
629.05	946.00
629.30	922.00
629.56	926.00
629.81	947.00
630.07	959.00
630.32	977.00
630.58	946.00
630.83	954.00
631.09	961.00
631.34	969.00
631.60	927.00
631.85	926.00
632.11	959.00
632.36	965.00
632.62	923.00
632.87	957.00
633.13	975.00
633.38	965.00
633.64	949.00
633.89	956.00
634.15	1001.00
634.40	1044.00
634.66	971.00
634.91	986.00
635.17	1012.00
635.42	1022.00
635.68	981.00
635.93	984.00
636.18	1025.00
636.44	1040.00
636.69	996.00
636.95	981.00
637.20	1029.00
637.46	1050.00
637.71	1011.00
637.97	1013.00
638.22	1026.00
638.48	1021.00
638.73	984.00
638.99	977.00
639.24	1031.00
639.50	1025.00
639.75	986.00
640.01	1013.00
640.26	1046.00
640.52	1038.00
640.77	980.00
641.03	1008.00
641.28	1035.00
641.54	1035.00
641.79	1002.00
642.04	1009.00
642.30	1025.00
642.55	1000.00
642.81	985.00
643.06	1012.00
643.32	1037.00
643.57	1030.00
643.83	970.00
644.08	936.00
644.34	972.00
644.59	1020.00
644.85	979.00
645.10	969.00
645.35	965.00
645.61	977.00
645.86	947.00
646.12	946.00
646.37	989.00
646.63	979.00
646.88	910.00
647.14	936.00
647.39	948.00
647.65	976.00
647.90	904.00
648.15	924.00
648.41	950.00
648.66	933.00
648.92	905.00
649.17	912.00
649.43	933.00
649.68	929.00
649.94	920.00
650.19	910.00
650.44	933.00
650.70	923.00
650.95	881.00
651.21	910.00
651.46	942.00
651.72	944.00
651.97	916.00
652.23	901.00
652.48	917.00
652.73	915.00
652.99	880.00
653.24	902.00
653.50	903.00
653.75	888.00
654.01	874.00
654.26	910.00
654.51	917.00
654.77	914.00
655.02	878.00
655.28	866.00
655.53	875.00
655.79	912.00
656.04	889.00
656.29	880.00
656.55	894.00
656.80	918.00
657.06	873.00
657.31	878.00
657.56	893.00
657.82	881.00
658.07	859.00
658.33	897.00
658.58	909.00
658.84	931.00
659.09	895.00
659.34	914.00
659.60	912.00
659.85	891.00
660.11	867.00
660.36	871.00
660.61	870.00
660.87	880.00
661.12	849.00
661.38	889.00
661.63	888.00
661.88	899.00
662.14	887.00
662.39	884.00
662.65	910.00
662.90	940.00
663.15	859.00
663.41	874.00
663.66	914.00
663.92	929.00
664.17	864.00
664.42	889.00
664.68	899.00
664.93	889.00
665.19	871.00
665.44	876.00
665.69	874.00
665.95	906.00
666.20	867.00
666.45	902.00
666.71	910.00
666.96	926.00
667.22	870.00
667.47	876.00
667.72	876.00
667.98	908.00
668.23	882.00
668.49	902.00
668.74	917.00
668.99	896.00
669.25	864.00
669.50	862.00
669.75	888.00
670.01	905.00
670.26	838.00
670.52	870.00
670.77	899.00
671.02	879.00
671.28	843.00
671.53	886.00
671.78	900.00
672.04	898.00
672.29	867.00
672.54	870.00
672.80	895.00
673.05	900.00
673.31	860.00
673.56	889.00
673.81	941.00
674.07	900.00
674.32	880.00
674.57	872.00
674.83	887.00
675.08	902.00
675.33	879.00
675.59	885.00
675.84	924.00
676.09	890.00
676.35	863.00
676.60	889.00
676.86	895.00
677.11	944.00
677.36	892.00
677.62	901.00
677.87	932.00
678.12	965.00
678.38	880.00
678.63	906.00
678.88	916.00
679.14	927.00
679.39	856.00
679.64	898.00
679.90	888.00
680.15	890.00
680.40	892.00
680.66	884.00
680.91	921.00
681.16	917.00
681.42	870.00
681.67	867.00
681.92	896.00
682.18	934.00
682.43	861.00
682.68	851.00
682.94	867.00
683.19	861.00
683.44	864.00
683.70	906.00
683.95	913.00
684.20	898.00
684.46	887.00
684.71	904.00
684.96	890.00
685.22	894.00
685.47	877.00
685.72	889.00
685.98	913.00
686.23	861.00
686.48	854.00
686.74	896.00
686.99	935.00
687.24	917.00
687.50	863.00
687.75	860.00
688.00	885.00
688.25	903.00
688.51	894.00
688.76	892.00
689.01	870.00
689.27	874.00
689.52	848.00
689.77	874.00
690.03	860.00
690.28	882.00
690.53	879.00
690.79	894.00
691.04	903.00
691.29	898.00
691.54	846.00
691.80	871.00
692.05	897.00
692.30	892.00
692.56	860.00
692.81	879.00
693.06	878.00
693.32	882.00
693.57	872.00
693.82	913.00
694.07	922.00
694.33	905.00
694.58	866.00
694.83	889.00
695.09	893.00
695.34	925.00
695.59	889.00
695.84	891.00
696.10	906.00
696.35	917.00
696.60	845.00
696.86	861.00
697.11	893.00
697.36	898.00
697.61	862.00
697.87	879.00
698.12	879.00
698.37	894.00
698.63	901.00
698.88	879.00
699.13	898.00
699.38	897.00
699.64	857.00
699.89	888.00
700.14	881.00
700.39	880.00
700.65	866.00
700.90	908.00
701.15	905.00
701.40	913.00
701.66	863.00
701.91	883.00
702.16	866.00
702.42	881.00
702.67	844.00
702.92	862.00
703.17	886.00
703.43	893.00
703.68	891.00
703.93	906.00
704.18	927.00
704.44	887.00
704.69	864.00
704.94	886.00
705.19	897.00
705.45	924.00
705.70	883.00
705.95	872.00
706.20	878.00
706.46	920.00
706.71	882.00
706.96	882.00
707.21	897.00
707.47	899.00
707.72	888.00
707.97	896.00
708.22	902.00
708.48	921.00
708.73	880.00
708.98	867.00
709.23	889.00
709.49	885.00
709.74	870.00
709.99	884.00
710.24	892.00
710.50	878.00
710.75	874.00
711.00	894.00
711.25	912.00
711.50	881.00
711.76	864.00
712.01	871.00
712.26	865.00
712.51	893.00
712.77	858.00
713.02	874.00
713.27	877.00
713.52	898.00
713.78	877.00
714.03	890.00
714.28	881.00
714.53	908.00
714.78	865.00
715.04	898.00
715.29	899.00
715.54	901.00
715.79	856.00
716.05	892.00
716.30	911.00
716.55	920.00
716.80	888.00
717.05	906.00
717.31	897.00
717.56	909.00
717.81	870.00
718.06	859.00
718.31	866.00
718.57	899.00
718.82	883.00
719.07	922.00
719.32	889.00
719.57	908.00
719.83	869.00
720.08	907.00
720.33	889.00
720.58	879.00
720.83	862.00
721.09	911.00
721.34	904.00
721.59	921.00
721.84	860.00
722.09	886.00
722.35	898.00
722.60	873.00
722.85	855.00
723.10	899.00
723.35	875.00
723.61	912.00
723.86	909.00
724.11	893.00
724.36	891.00
724.61	892.00
724.87	886.00
725.12	861.00
725.37	877.00
725.62	871.00
725.87	873.00
726.12	867.00
726.38	863.00
726.63	898.00
726.88	886.00
727.13	907.00
727.38	889.00
727.64	908.00
727.89	866.00
728.14	858.00
728.39	864.00
728.64	889.00
728.89	882.00
729.15	907.00
729.40	906.00
729.65	911.00
729.90	856.00
730.15	888.00
730.40	908.00
730.66	906.00
730.91	866.00
731.16	875.00
731.41	899.00
731.66	894.00
731.91	857.00
732.17	899.00
732.42	916.00
732.67	878.00
732.92	861.00
733.17	886.00
733.42	884.00
733.68	902.00
733.93	869.00
734.18	891.00
734.43	872.00
734.68	880.00
734.93	883.00
735.18	900.00
735.44	902.00
735.69	894.00
735.94	850.00
736.19	886.00
736.44	870.00
736.69	915.00
736.95	858.00
737.20	903.00
737.45	901.00
737.70	893.00
737.95	883.00
738.20	900.00
738.45	915.00
738.70	909.00
738.96	882.00
739.21	899.00
739.46	904.00
739.71	915.00
739.96	868.00
740.21	908.00
740.46	956.00
740.72	918.00
740.97	868.00
741.22	906.00
741.47	884.00
741.72	893.00
741.97	852.00
742.22	889.00
742.47	908.00
742.73	906.00
742.98	864.00
743.23	860.00
743.48	866.00
743.73	902.00
743.98	897.00
744.23	885.00
744.48	885.00
744.74	863.00
744.99	848.00
745.24	910.00
745.49	884.00
745.74	899.00
745.99	857.00
746.24	872.00
746.49	874.00
746.74	882.00
747.00	871.00
747.25	877.00
747.50	850.00
747.75	877.00
748.00	836.00
748.25	866.00
748.50	878.00
748.75	901.00
749.00	898.00
749.26	920.00
749.51	894.00
749.76	911.00
750.01	856.00
750.26	881.00
750.51	917.00
750.76	905.00
751.01	864.00
751.26	880.00
751.51	898.00
751.77	899.00
752.02	869.00
752.27	878.00
752.52	891.00
752.77	901.00
753.02	866.00
753.27	896.00
753.52	882.00
753.77	890.00
754.02	852.00
754.27	872.00
754.52	874.00
754.78	904.00
755.03	869.00
755.28	892.00
755.53	897.00
755.78	898.00
756.03	852.00
756.28	875.00
756.53	880.00
756.78	901.00
757.03	882.00
757.28	891.00
757.53	904.00
757.79	873.00
758.04	863.00
758.29	926.00
758.54	909.00
758.79	901.00
759.04	851.00
759.29	858.00
759.54	883.00
759.79	886.00
760.04	887.00
760.29	892.00
760.54	894.00
760.79	878.00
761.04	854.00
761.29	878.00
761.55	880.00
761.80	900.00
762.05	864.00
762.30	892.00
762.55	896.00
762.80	914.00
763.05	900.00
763.30	893.00
763.55	920.00
763.80	906.00
764.05	864.00
764.30	914.00
764.55	928.00
764.80	909.00
765.05	853.00
765.30	897.00
765.55	923.00
765.80	900.00
766.05	845.00
766.30	891.00
766.56	893.00
766.81	906.00
767.06	906.00
767.31	912.00
767.56	898.00
767.81	896.00
768.06	861.00
768.31	897.00
768.56	879.00
768.81	927.00
769.06	862.00
769.31	885.00
769.56	888.00
769.81	912.00
770.06	839.00
770.31	870.00
770.56	916.00
770.81	886.00
771.06	840.00
771.31	868.00
771.56	890.00
771.81	899.00
772.06	857.00
772.31	921.00
772.56	917.00
772.81	911.00
773.06	866.00
773.31	888.00
773.56	889.00
773.81	876.00
774.06	868.00
774.31	891.00
774.56	889.00
774.81	921.00
775.06	878.00
775.31	902.00
775.56	910.00
775.81	875.00
776.06	857.00
776.31	884.00
776.56	886.00
776.82	911.00
777.07	864.00
777.32	898.00
777.57	892.00
777.82	932.00
778.07	872.00
778.32	870.00
778.57	897.00
778.82	903.00
779.07	864.00
779.32	889.00
779.57	870.00
779.82	872.00
780.07	865.00
780.32	886.00
780.56	906.00
780.81	949.00
781.06	869.00
781.31	876.00
781.56	921.00
781.81	906.00
782.06	857.00
782.31	893.00
782.56	880.00
782.81	910.00
783.06	867.00
783.31	875.00
783.56	861.00
783.81	895.00
784.06	879.00
784.31	883.00
784.56	861.00
784.81	925.00
785.06	880.00
785.31	886.00
785.56	860.00
785.81	876.00
786.06	852.00
786.31	887.00
786.56	882.00
786.81	903.00
787.06	893.00
787.31	876.00
787.56	859.00
787.81	865.00
788.06	857.00
788.31	912.00
788.56	880.00
788.81	919.00
789.06	880.00
789.31	884.00
789.56	894.00
789.81	895.00
790.06	860.00
790.31	903.00
790.56	886.00
790.80	882.00
791.05	862.00
791.30	869.00
791.55	874.00
791.80	904.00
792.05	865.00
792.30	879.00
792.55	873.00
792.80	884.00
793.05	865.00
793.30	881.00
793.55	900.00
793.80	908.00
794.05	872.00
794.30	892.00
794.55	906.00
794.80	913.00
795.05	861.00
795.30	878.00
795.54	862.00
795.79	890.00
796.04	855.00
796.29	890.00
796.54	880.00
796.79	898.00
797.04	870.00
797.29	891.00
797.54	903.00
797.79	912.00
798.04	884.00
798.29	869.00
798.54	863.00
798.79	870.00
799.04	843.00
799.29	879.00
799.53	889.00
799.78	880.00
800.03	874.00
800.28	870.00
800.53	862.00
800.78	909.00
801.03	864.00
801.28	877.00
801.53	876.00
801.78	904.00
802.03	872.00
802.28	880.00
802.52	877.00
802.77	915.00
803.02	893.00
803.27	894.00
803.52	881.00
803.77	913.00
804.02	896.00
804.27	899.00
804.52	907.00
804.77	924.00
805.02	876.00
805.27	895.00
805.51	882.00
805.76	902.00
806.01	859.00
806.26	883.00
806.51	882.00
806.76	932.00
807.01	886.00
807.26	857.00
807.51	892.00
807.76	885.00
808.00	851.00
808.25	878.00
808.50	892.00
808.75	884.00
809.00	853.00
809.25	873.00
809.50	878.00
809.75	920.00
810.00	883.00
810.24	859.00
810.49	847.00
810.74	858.00
810.99	866.00
811.24	883.00
811.49	906.00
811.74	907.00
811.99	850.00
812.24	881.00
812.48	882.00
812.73	870.00
812.98	833.00
813.23	849.00
813.48	884.00
813.73	891.00
813.98	837.00
814.23	882.00
814.47	882.00
814.72	875.00
814.97	850.00
815.22	890.00
815.47	860.00
815.72	874.00
815.97	840.00
816.22	875.00
816.46	891.00
816.71	897.00
816.96	875.00
817.21	888.00
817.46	875.00
817.71	875.00
817.96	854.00
818.20	871.00
818.45	854.00
818.70	888.00
818.95	862.00
819.20	893.00
819.45	903.00
819.70	898.00
819.94	872.00
820.19	884.00
820.44	885.00
820.69	925.00
820.94	869.00
821.19	893.00
821.44	946.00
821.68	962.00
821.93	873.00
822.18	891.00
822.43	905.00
822.68	918.00
822.93	876.00
823.17	875.00
823.42	888.00
823.67	879.00
823.92	851.00
824.17	872.00
824.42	873.00
824.67	888.00
824.91	872.00
825.16	882.00
825.41	890.00
825.66	873.00
825.91	848.00
826.16	876.00
826.40	898.00
826.65	913.00
826.90	859.00
827.15	874.00
827.40	887.00
827.65	914.00
827.89	839.00
828.14	881.00
828.39	891.00
828.64	897.00
828.89	844.00
829.13	873.00
829.38	886.00
829.63	904.00
829.88	867.00
830.13	854.00
830.38	855.00
830.62	885.00
830.87	865.00
831.12	875.00
831.37	906.00
831.62	931.00
831.86	882.00
832.11	880.00
832.36	865.00
832.61	908.00
832.86	888.00
833.10	886.00
833.35	898.00
833.60	916.00
833.85	875.00
834.10	883.00
834.35	912.00
834.59	917.00
834.84	865.00
835.09	897.00
835.34	870.00
835.59	889.00
835.83	884.00
836.08	888.00
836.33	899.00
836.58	921.00
836.83	886.00
837.07	901.00
837.32	902.00
837.57	902.00
837.82	878.00
838.06	904.00
838.31	917.00
838.56	925.00
838.81	861.00
839.06	883.00
839.30	873.00
839.55	908.00
839.80	862.00
840.05	893.00
840.30	918.00
840.54	921.00
840.79	880.00
841.04	888.00
841.29	891.00
841.53	893.00
841.78	872.00
842.03	844.00
842.28	870.00
842.53	883.00
842.77	873.00
843.02	901.00
843.27	883.00
843.52	897.00
843.76	869.00
844.01	890.00
844.26	873.00
844.51	884.00
844.75	860.00
845.00	858.00
845.25	881.00
845.50	901.00
845.75	881.00
845.99	896.00
846.24	882.00
846.49	904.00
846.74	857.00
846.98	848.00
847.23	876.00
847.48	894.00
847.73	848.00
847.97	873.00
848.22	917.00
848.47	924.00
848.72	870.00
848.96	877.00
849.21	881.00
849.46	862.00
849.71	852.00
849.95	876.00
850.20	874.00
850.45	884.00
850.70	850.00
850.94	889.00
851.19	886.00
851.44	880.00
851.69	848.00
851.93	872.00
852.18	895.00
852.43	895.00
852.68	880.00
852.92	916.00
853.17	925.00
853.42	910.00
853.66	885.00
853.91	923.00
854.16	892.00
854.41	923.00
854.65	869.00
854.90	889.00
855.15	892.00
855.40	892.00
855.64	893.00
855.89	892.00
856.14	883.00
856.39	873.00
856.63	860.00
856.88	858.00
857.13	859.00
857.37	871.00
857.62	849.00
857.87	846.00
858.12	866.00
858.36	919.00
858.61	840.00
858.86	872.00
859.10	900.00
859.35	892.00
859.60	857.00
859.85	862.00
860.09	867.00
860.34	907.00
860.59	865.00
860.83	871.00
861.08	895.00
861.33	924.00
861.58	873.00
861.82	869.00
862.07	884.00
862.32	875.00
862.56	839.00
862.81	858.00
863.06	899.00
863.30	894.00
863.55	859.00
863.80	886.00
864.05	882.00
864.29	883.00
864.54	877.00
864.79	898.00
865.03	885.00
865.28	917.00
865.53	870.00
865.77	858.00
866.02	897.00
866.27	911.00
866.51	880.00
866.76	859.00
867.01	873.00
867.26	901.00
867.50	850.00
867.75	845.00
868.00	883.00
868.24	899.00
868.49	864.00
868.74	878.00
868.98	871.00
869.23	907.00
869.48	882.00
869.72	871.00
869.97	873.00
870.22	898.00
870.46	876.00
870.71	889.00
870.96	870.00
871.20	908.00
871.45	843.00
871.70	872.00
871.94	902.00
872.19	923.00
872.44	901.00
872.68	896.00
872.93	891.00
873.18	912.00
873.42	880.00
873.67	893.00
873.92	910.00
874.16	894.00
874.41	876.00
874.66	892.00
874.90	891.00
875.15	921.00
875.40	902.00
875.64	897.00
875.89	889.00
876.14	905.00
876.38	864.00
876.63	865.00
876.88	892.00
877.12	899.00
877.37	842.00
877.62	900.00
877.86	876.00
878.11	908.00
878.36	836.00
878.60	878.00
878.85	886.00
879.09	879.00
879.34	861.00
879.59	894.00
879.83	908.00
880.08	925.00
880.33	876.00
880.57	893.00
880.82	904.00
881.07	906.00
881.31	877.00
881.56	881.00
881.80	871.00
882.05	904.00
882.30	844.00
882.54	857.00
882.79	904.00
883.04	938.00
883.28	898.00
883.53	890.00
883.77	920.00
884.02	910.00
884.27	872.00
884.51	869.00
884.76	880.00
885.01	919.00
885.25	864.00
885.50	892.00
885.74	876.00
885.99	928.00
886.24	877.00
886.48	878.00
886.73	917.00
886.98	931.00
887.22	884.00
887.47	882.00
887.71	900.00
887.96	887.00
888.21	873.00
888.45	850.00
888.70	858.00
888.94	909.00
889.19	849.00
889.44	878.00
889.68	890.00
889.93	936.00
890.17	889.00
890.42	848.00
890.67	909.00
890.91	986.00
891.16	878.00
891.40	865.00
891.65	864.00
891.90	892.00
892.14	847.00
892.39	883.00
892.63	901.00
892.88	927.00
893.13	883.00
893.37	864.00
893.62	878.00
893.86	918.00
894.11	870.00
894.36	888.00
894.60	870.00
894.85	873.00
895.09	861.00
895.34	904.00
895.59	897.00
895.83	888.00
896.08	852.00
896.32	866.00
896.57	880.00
896.81	901.00
897.06	870.00
897.31	873.00
897.55	892.00
897.80	873.00
898.04	841.00
898.29	875.00
898.53	890.00
898.78	911.00
899.03	877.00
899.27	873.00
899.52	911.00
899.76	926.00
900.01	857.00
900.25	892.00
900.50	901.00
900.75	909.00
900.99	876.00
901.24	939.00
901.48	896.00
901.73	907.00
901.97	853.00
902.22	894.00
902.47	906.00
902.71	887.00
902.96	856.00
903.20	891.00
903.45	900.00
903.69	899.00
903.94	869.00
904.18	857.00
904.43	876.00
904.68	883.00
904.92	843.00
905.17	877.00
905.41	904.00
905.66	920.00
905.90	903.00
906.15	897.00
906.39	893.00
906.64	882.00
906.88	862.00
907.13	863.00
907.38	902.00
907.62	917.00
907.87	867.00
908.11	886.00
908.36	860.00
908.60	885.00
908.85	826.00
909.09	869.00
909.34	877.00
909.58	881.00
909.83	858.00
910.07	864.00
910.32	913.00
910.56	929.00
910.81	856.00
911.06	895.00
911.30	888.00
911.55	877.00
911.79	860.00
912.04	869.00
912.28	860.00
912.53	890.00
912.77	883.00
913.02	869.00
913.26	864.00
913.51	885.00
913.75	870.00
914.00	877.00
914.24	887.00
914.49	903.00
914.73	871.00
914.98	896.00
915.22	908.00
915.47	885.00
915.71	854.00
915.96	877.00
916.20	879.00
916.45	851.00
916.69	855.00
916.94	876.00
917.18	883.00
917.43	896.00
917.67	874.00
917.92	866.00
918.16	899.00
918.41	902.00
918.65	864.00
918.90	838.00
919.14	841.00
919.39	891.00
919.63	860.00
919.88	864.00
920.12	896.00
920.37	891.00
920.61	857.00
920.86	889.00
921.10	906.00
921.35	892.00
921.59	857.00
921.84	874.00
922.08	885.00
922.33	894.00
922.57	853.00
922.82	850.00
923.06	877.00
923.31	908.00
923.55	843.00
923.80	856.00
924.04	876.00
924.29	907.00
924.53	860.00
924.78	877.00
925.02	867.00
925.27	897.00
925.51	869.00
925.76	896.00
926.00	890.00
926.25	878.00
926.49	876.00
926.73	896.00
926.98	892.00
927.22	907.00
927.47	894.00
927.71	886.00
927.96	898.00
928.20	896.00
928.45	884.00
928.69	908.00
928.94	899.00
929.18	876.00
929.43	882.00
929.67	889.00
929.91	885.00
930.16	897.00
930.40	855.00
930.65	854.00
930.89	886.00
931.14	929.00
931.38	877.00
931.63	906.00
931.87	898.00
932.12	910.00
932.36	862.00
932.60	874.00
932.85	896.00
933.09	871.00
933.34	840.00
933.58	896.00
933.83	889.00
934.07	910.00
934.32	867.00
934.56	885.00
934.80	931.00
935.05	934.00
935.29	881.00
935.54	890.00
935.78	896.00
936.03	901.00
936.27	839.00
936.52	861.00
936.76	880.00
937.00	897.00
937.25	866.00
937.49	881.00
937.74	912.00
937.98	914.00
938.23	850.00
938.47	866.00
938.71	879.00
938.96	877.00
939.20	852.00
939.45	864.00
939.69	874.00
939.94	912.00
940.18	854.00
940.42	864.00
940.67	882.00
940.91	876.00
941.16	864.00
941.40	855.00
941.64	885.00
941.89	900.00
942.13	863.00
942.38	881.00
942.62	962.00
942.87	913.00
943.11	896.00
943.35	873.00
943.60	896.00
943.84	936.00
944.09	884.00
944.33	900.00
944.57	911.00
944.82	885.00
945.06	857.00
945.31	881.00
945.55	878.00
945.79	904.00
946.04	871.00
946.28	874.00
946.53	890.00
946.77	905.00
947.01	862.00
947.26	914.00
947.50	896.00
947.75	896.00
947.99	885.00
948.23	896.00
948.48	895.00
948.72	901.00
948.97	876.00
949.21	874.00
949.45	885.00
949.70	917.00
949.94	886.00
950.18	897.00
950.43	892.00
950.67	892.00
950.92	867.00
951.16	879.00
951.40	876.00
951.65	894.00
951.89	889.00
952.13	896.00
952.38	896.00
952.62	898.00
952.87	865.00
953.11	896.00
953.35	910.00
953.60	901.00
953.84	837.00
954.08	852.00
954.33	875.00
954.57	902.00
954.82	877.00
955.06	840.00
955.30	869.00
955.55	886.00
955.79	869.00
956.03	874.00
956.28	882.00
956.52	884.00
956.76	882.00
957.01	889.00
957.25	869.00
957.50	888.00
957.74	857.00
957.98	857.00
958.23	900.00
958.47	899.00
958.71	874.00
958.96	905.00
959.20	925.00
959.44	894.00
959.69	876.00
959.93	884.00
960.17	905.00
960.42	922.00
960.66	886.00
960.90	887.00
961.15	872.00
961.39	882.00
961.64	849.00
961.88	841.00
962.12	899.00
962.37	901.00
962.61	881.00
962.85	866.00
963.10	893.00
963.34	895.00
963.58	857.00
963.83	900.00
964.07	906.00
964.31	881.00
964.56	876.00
964.80	873.00
965.04	901.00
965.29	905.00
965.53	852.00
965.77	857.00
966.02	838.00
966.26	876.00
966.50	843.00
966.74	885.00
966.99	912.00
967.23	899.00
967.47	867.00
967.72	882.00
967.96	905.00
968.20	894.00
968.45	864.00
968.69	864.00
968.93	868.00
969.18	892.00
969.42	901.00
969.66	890.00
969.91	886.00
970.15	897.00
970.39	869.00
970.64	878.00
970.88	891.00
971.12	898.00
971.36	883.00
971.61	881.00
971.85	897.00
972.09	891.00
972.34	875.00
972.58	877.00
972.82	900.00
973.07	921.00
973.31	854.00
973.55	867.00
973.79	907.00
974.04	931.00
974.28	891.00
974.52	884.00
974.77	880.00
975.01	923.00
975.25	883.00
975.50	873.00
975.74	898.00
975.98	914.00
976.22	877.00
976.47	881.00
976.71	878.00
976.95	900.00
977.20	901.00
977.44	893.00
977.68	900.00
977.92	904.00
978.17	857.00
978.41	860.00
978.65	897.00
978.90	888.00
979.14	876.00
979.38	867.00
979.62	890.00
979.87	889.00
980.11	839.00
980.35	864.00
980.59	890.00
980.84	900.00
981.08	867.00
981.32	863.00
981.57	894.00
981.81	903.00
982.05	868.00
982.29	862.00
982.54	880.00
982.78	887.00
983.02	860.00
983.26	882.00
983.51	907.00
983.75	915.00
983.99	849.00
984.23	888.00
984.48	896.00
984.72	906.00
984.96	853.00
985.20	862.00
985.45	925.00
985.69	911.00
985.93	871.00
986.17	890.00
986.42	898.00
986.66	886.00
986.90	839.00
987.14	847.00
987.39	887.00
987.63	881.00
987.87	862.00
988.11	863.00
988.36	900.00
988.60	884.00
988.84	869.00
989.08	872.00
989.33	899.00
989.57	908.00
989.81	840.00
990.05	862.00
990.30	869.00
990.54	869.00
990.78	859.00
991.02	862.00
991.27	892.00
991.51	882.00
991.75	862.00
991.99	880.00
992.23	861.00
992.48	863.00
992.72	852.00
992.96	868.00
993.20	877.00
993.45	899.00
993.69	904.00
993.93	860.00
994.17	898.00
994.41	899.00
994.66	841.00
994.90	871.00
995.14	906.00
995.38	892.00
995.63	865.00
995.87	867.00
996.11	916.00
996.35	910.00
996.59	844.00
996.84	865.00
997.08	887.00
997.32	884.00
997.56	863.00
997.80	843.00
998.05	850.00
998.29	861.00
998.53	852.00
998.77	870.00
999.01	896.00
999.26	892.00
999.50	865.00
999.74	850.00
999.98	873.00
1000.22	886.00
1000.47	841.00
1000.71	862.00
1000.95	906.00
1001.19	904.00
1001.43	880.00
1001.68	870.00
1001.92	884.00
1002.16	861.00
1002.40	842.00
1002.64	862.00
1002.89	881.00
1003.13	893.00
1003.37	872.00
1003.61	848.00
1003.85	887.00
1004.10	901.00
1004.34	869.00
1004.58	861.00
1004.82	900.00
1005.06	885.00
1005.30	870.00
1005.55	860.00
1005.79	882.00
1006.03	869.00
1006.27	869.00
1006.51	858.00
1006.76	897.00
1007.00	901.00
1007.24	876.00
1007.48	867.00
1007.72	902.00
1007.96	908.00
1008.21	891.00
1008.45	917.00
1008.69	901.00
1008.93	919.00
1009.17	880.00
1009.41	896.00
1009.66	908.00
1009.90	883.00
1010.14	851.00
1010.38	873.00
1010.62	910.00
1010.86	940.00
1011.10	869.00
1011.35	866.00
1011.59	890.00
1011.83	858.00
1012.07	854.00
1012.31	896.00
1012.55	888.00
1012.80	889.00
1013.04	871.00
1013.28	880.00
1013.52	900.00
1013.76	919.00
1014.00	863.00
1014.24	872.00
1014.49	906.00
1014.73	938.00
1014.97	902.00
1015.21	892.00
1015.45	941.00
1015.69	892.00
1015.93	869.00
1016.18	856.00
1016.42	910.00
1016.66	919.00
1016.90	861.00
1017.14	850.00
1017.38	872.00
1017.62	893.00
1017.87	874.00
1018.11	864.00
1018.35	874.00
1018.59	903.00
1018.83	859.00
1019.07	883.00
1019.31	891.00
1019.55	886.00
1019.80	867.00
1020.04	887.00
1020.28	887.00
1020.52	882.00
1020.76	846.00
1021.00	830.00
1021.24	857.00
1021.48	843.00
1021.73	854.00
1021.97	876.00
1022.21	877.00
1022.45	889.00
1022.69	880.00
1022.93	860.00
1023.17	904.00
1023.41	931.00
1023.65	875.00
1023.90	915.00
1024.14	922.00
1024.38	869.00
1024.62	835.00
1024.86	872.00
1025.10	895.00
1025.34	891.00
1025.58	853.00
1025.82	868.00
1026.07	915.00
1026.31	891.00
1026.55	863.00
1026.79	873.00
1027.03	897.00
1027.27	904.00
1027.51	854.00
1027.75	843.00
1027.99	867.00
1028.23	926.00
1028.47	879.00
1028.72	865.00
1028.96	890.00
1029.20	892.00
1029.44	881.00
1029.68	885.00
1029.92	892.00
1030.16	906.00
1030.40	851.00
1030.64	864.00
1030.88	886.00
1031.12	865.00
1031.37	841.00
1031.61	881.00
1031.85	907.00
1032.09	897.00
1032.33	856.00
1032.57	915.00
1032.81	888.00
1033.05	918.00
1033.29	885.00
1033.53	869.00
1033.77	928.00
1034.01	927.00
1034.25	888.00
1034.50	891.00
1034.74	903.00
1034.98	902.00
1035.22	868.00
1035.46	887.00
1035.70	923.00
1035.94	901.00
1036.18	872.00
1036.42	873.00
1036.66	861.00
1036.90	885.00
1037.14	859.00
1037.38	861.00
1037.62	907.00
1037.86	883.00
1038.10	867.00
1038.35	859.00
1038.59	895.00
1038.83	916.00
1039.07	882.00
1039.31	905.00
1039.55	876.00
1039.79	880.00
1040.03	840.00
1040.27	845.00
1040.51	902.00
1040.75	906.00
1040.99	877.00
1041.23	898.00
1041.47	881.00
1041.71	907.00
1041.95	880.00
1042.19	871.00
1042.43	905.00
1042.67	903.00
1042.91	870.00
1043.15	873.00
1043.39	922.00
1043.64	885.00
1043.88	848.00
1044.12	893.00
1044.36	936.00
1044.60	915.00
1044.84	880.00
1045.08	884.00
1045.32	902.00
1045.56	889.00
1045.80	868.00
1046.04	882.00
1046.28	917.00
1046.52	899.00
1046.76	852.00
1047.00	863.00
1047.24	884.00
1047.48	886.00
1047.72	880.00
1047.96	870.00
1048.20	884.00
1048.44	880.00
1048.68	855.00
1048.92	881.00
1049.16	907.00
1049.40	909.00
1049.64	891.00
1049.88	886.00
1050.12	905.00
1050.36	922.00
1050.60	877.00
1050.84	872.00
1051.08	891.00
1051.32	882.00
1051.56	869.00
1051.80	857.00
1052.04	892.00
1052.28	914.00
1052.52	859.00
1052.76	836.00
1053.00	864.00
1053.24	912.00
1053.48	857.00
1053.72	865.00
1053.96	887.00
1054.20	901.00
1054.44	878.00
1054.68	895.00
1054.92	911.00
1055.16	853.00
1055.40	852.00
1055.64	877.00
1055.88	930.00
1056.12	936.00
1056.36	847.00
1056.60	847.00
1056.84	894.00
1057.08	894.00
1057.32	866.00
1057.56	852.00
1057.80	876.00
1058.04	908.00
1058.28	866.00
1058.52	876.00
1058.76	902.00
1059.00	929.00
1059.24	846.00
1059.48	861.00
1059.72	905.00
1059.96	897.00
1060.20	896.00
1060.44	900.00
1060.68	925.00
1060.92	888.00
1061.16	847.00
1061.40	885.00
1061.64	899.00
1061.88	883.00
1062.11	855.00
1062.35	862.00
1062.59	874.00
1062.83	912.00
1063.07	886.00
1063.31	860.00
1063.55	878.00
1063.79	900.00
1064.03	869.00
1064.27	859.00
1064.51	889.00
1064.75	901.00
1064.99	874.00
1065.23	866.00
1065.47	887.00
1065.71	905.00
1065.95	853.00
1066.19	868.00
1066.43	903.00
1066.67	891.00
1066.91	886.00
1067.15	885.00
1067.38	879.00
1067.62	883.00
1067.86	851.00
1068.10	885.00
1068.34	943.00
1068.58	919.00
1068.82	869.00
1069.06	844.00
1069.30	894.00
1069.54	919.00
1069.78	899.00
1070.02	869.00
1070.26	915.00
1070.50	922.00
1070.74	871.00
1070.98	892.00
1071.21	904.00
1071.45	897.00
1071.69	862.00
1071.93	870.00
1072.17	885.00
1072.41	897.00
1072.65	890.00
1072.89	910.00
1073.13	897.00
1073.37	886.00
1073.61	854.00
1073.85	878.00
1074.09	859.00
1074.32	876.00
1074.56	884.00
1074.80	943.00
1075.04	1165.00
1075.28	997.00
1075.52	890.00
1075.76	900.00
1076.00	915.00
1076.24	905.00
1076.48	897.00
1076.72	887.00
1076.96	900.00
1077.19	892.00
1077.43	866.00
1077.67	881.00
1077.91	885.00
1078.15	870.00
1078.39	874.00
1078.63	874.00
1078.87	897.00
1079.11	893.00
1079.35	851.00
1079.58	860.00
1079.82	878.00
1080.06	881.00
1080.30	839.00
1080.54	881.00
1080.78	908.00
1081.02	887.00
1081.26	870.00
1081.50	887.00
1081.74	896.00
1081.97	904.00
1082.21	876.00
1082.45	893.00
1082.69	891.00
1082.93	874.00
1083.17	866.00
1083.41	874.00
1083.65	932.00
1083.88	924.00
1084.12	876.00
1084.36	887.00
1084.60	896.00
1084.84	899.00
1085.08	846.00
1085.32	871.00
1085.56	913.00
1085.80	898.00
1086.03	879.00
1086.27	873.00
1086.51	882.00
1086.75	913.00
1086.99	865.00
1087.23	855.00
1087.47	897.00
1087.70	875.00
1087.94	856.00
1088.18	900.00
1088.42	938.00
1088.66	898.00
1088.90	845.00
1089.14	886.00
1089.38	898.00
1089.61	906.00
1089.85	876.00
1090.09	855.00
1090.33	920.00
1090.57	914.00
1090.81	839.00
1091.05	876.00
1091.28	900.00
1091.52	912.00
1091.76	852.00
1092.00	871.00
1092.24	890.00
1092.48	903.00
1092.71	859.00
1092.95	885.00
1093.19	904.00
1093.43	892.00
1093.67	866.00
1093.91	885.00
1094.15	907.00
1094.38	904.00
1094.62	862.00
1094.86	863.00
1095.10	878.00
1095.34	900.00
1095.58	869.00
1095.81	867.00
1096.05	908.00
1096.29	919.00
1096.53	852.00
1096.77	875.00
1097.01	869.00
1097.24	903.00
1097.48	872.00
1097.72	884.00
1097.96	890.00
1098.20	895.00
1098.44	848.00
1098.67	843.00
1098.91	907.00
1099.15	917.00
1099.39	850.00
1099.63	861.00
1099.86	903.00
1100.10	871.00
1100.34	861.00
1100.58	868.00
1100.82	906.00
1101.06	884.00
1101.29	842.00
1101.53	867.00
1101.77	898.00
1102.01	869.00
1102.25	848.00
1102.48	877.00
1102.72	924.00
1102.96	910.00
1103.20	846.00
1103.44	868.00
1103.67	874.00
1103.91	891.00
1104.15	849.00
1104.39	858.00
1104.63	886.00
1104.86	857.00
1105.10	852.00
1105.34	884.00
1105.58	885.00
1105.82	894.00
1106.05	875.00
1106.29	885.00
1106.53	880.00
1106.77	919.00
1107.01	860.00
1107.24	899.00
1107.48	949.00
1107.72	907.00
1107.96	838.00
1108.20	868.00
1108.43	888.00
1108.67	882.00
1108.91	872.00
1109.15	863.00
1109.39	880.00
1109.62	896.00
1109.86	846.00
1110.10	858.00
1110.34	934.00
1110.57	948.00
1110.81	891.00
1111.05	898.00
1111.29	940.00
1111.53	942.00
1111.76	871.00
1112.00	907.00
1112.24	915.00
1112.48	897.00
1112.71	857.00
1112.95	880.00
1113.19	927.00
1113.43	891.00
1113.66	851.00
1113.90	881.00
1114.14	910.00
1114.38	899.00
1114.62	853.00
1114.85	886.00
1115.09	894.00
1115.33	931.00
1115.57	886.00
1115.80	855.00
1116.04	885.00
1116.28	892.00
1116.52	861.00
1116.75	880.00
1116.99	930.00
1117.23	921.00
1117.47	896.00
1117.70	929.00
1117.94	957.00
1118.18	889.00
1118.42	868.00
1118.65	900.00
1118.89	916.00
1119.13	893.00
1119.37	863.00
1119.60	882.00
1119.84	899.00
>>>>>End Processed Spectral Data<<<<<
