SpectraSuite Data File
++++++++++++++++++++++++++++++++++++
Date: Fri Dec 06 16:06:07 CET 2024
User: student
Dark Spectrum Present: No
Reference Spectrum Present: No
Number of Sampled Component Spectra: 1
Spectrometers: HR4C155
Integration Time (usec): 100000 (HR4C155)
Spectra Averaged: 1 (HR4C155)
Boxcar Smoothing: 0 (HR4C155)
Correct for Electrical Dark: No (HR4C155)
Strobe/Lamp Enabled: No (HR4C155)
Correct for Detector Non-linearity: No (HR4C155)
Correct for Stray Light: No (HR4C155)
Number of Pixels in Processed Spectrum: 3648
>>>>>Begin Processed Spectral Data<<<<<
195.39	739.00
195.66	739.00
195.93	739.00
196.20	688.00
196.46	718.00
196.73	836.00
197.00	840.00
197.27	847.00
197.54	879.00
197.81	878.00
198.08	865.00
198.35	891.00
198.61	912.00
198.88	878.00
199.15	872.00
199.42	881.00
199.69	905.00
199.96	871.00
200.23	889.00
200.49	905.00
200.76	906.00
201.03	898.00
201.30	889.00
201.57	927.00
201.84	959.00
202.11	894.00
202.38	912.00
202.64	935.00
202.91	934.00
203.18	871.00
203.45	933.00
203.72	1006.00
203.99	934.00
204.25	935.00
204.52	916.00
204.79	927.00
205.06	946.00
205.33	890.00
205.60	900.00
205.87	942.00
206.13	938.00
206.40	904.00
206.67	907.00
206.94	951.00
207.21	937.00
207.48	908.00
207.75	902.00
208.01	944.00
208.28	939.00
208.55	891.00
208.82	908.00
209.09	918.00
209.36	957.00
209.62	923.00
209.89	933.00
210.16	938.00
210.43	976.00
210.70	901.00
210.97	908.00
211.23	947.00
211.50	973.00
211.77	905.00
212.04	918.00
212.31	934.00
212.58	950.00
212.84	904.00
213.11	907.00
213.38	884.00
213.65	897.00
213.92	886.00
214.18	911.00
214.45	949.00
214.72	948.00
214.99	893.00
215.26	937.00
215.53	907.00
215.79	934.00
216.06	938.00
216.33	944.00
216.60	908.00
216.87	939.00
217.13	899.00
217.40	922.00
217.67	944.00
217.94	968.00
218.21	892.00
218.48	942.00
218.74	989.00
219.01	948.00
219.28	897.00
219.55	886.00
219.82	935.00
220.08	966.00
220.35	898.00
220.62	900.00
220.89	974.00
221.16	990.00
221.42	926.00
221.69	908.00
221.96	941.00
222.23	950.00
222.50	946.00
222.76	941.00
223.03	920.00
223.30	923.00
223.57	883.00
223.84	887.00
224.10	887.00
224.37	930.00
224.64	894.00
224.91	919.00
225.18	947.00
225.44	949.00
225.71	915.00
225.98	934.00
226.25	961.00
226.51	973.00
226.78	894.00
227.05	908.00
227.32	925.00
227.59	940.00
227.85	921.00
228.12	919.00
228.39	956.00
228.66	951.00
228.92	966.00
229.19	941.00
229.46	944.00
229.73	921.00
230.00	897.00
230.26	932.00
230.53	947.00
230.80	921.00
231.07	865.00
231.33	884.00
231.60	919.00
231.87	928.00
232.14	906.00
232.41	936.00
232.67	936.00
232.94	952.00
233.21	904.00
233.48	926.00
233.74	929.00
234.01	933.00
234.28	901.00
234.55	916.00
234.81	916.00
235.08	951.00
235.35	905.00
235.62	907.00
235.88	921.00
236.15	948.00
236.42	933.00
236.69	916.00
236.95	949.00
237.22	921.00
237.49	902.00
237.76	898.00
238.02	943.00
238.29	955.00
238.56	897.00
238.83	907.00
239.09	917.00
239.36	954.00
239.63	901.00
239.90	914.00
240.16	946.00
240.43	989.00
240.70	911.00
240.97	914.00
241.23	927.00
241.50	933.00
241.77	901.00
242.04	906.00
242.30	891.00
242.57	918.00
242.84	904.00
243.11	893.00
243.37	879.00
243.64	951.00
243.91	923.00
244.18	899.00
244.44	894.00
244.71	900.00
244.98	895.00
245.24	892.00
245.51	923.00
245.78	958.00
246.05	876.00
246.31	894.00
246.58	949.00
246.85	930.00
247.12	903.00
247.38	931.00
247.65	937.00
247.92	963.00
248.18	904.00
248.45	906.00
248.72	915.00
248.99	922.00
249.25	872.00
249.52	899.00
249.79	937.00
250.05	939.00
250.32	892.00
250.59	899.00
250.86	916.00
251.12	914.00
251.39	884.00
251.66	915.00
251.92	948.00
252.19	929.00
252.46	894.00
252.73	936.00
252.99	959.00
253.26	936.00
253.53	890.00
253.79	918.00
254.06	920.00
254.33	910.00
254.60	879.00
254.86	909.00
255.13	954.00
255.40	963.00
255.66	924.00
255.93	940.00
256.20	937.00
256.46	945.00
256.73	909.00
257.00	912.00
257.26	946.00
257.53	965.00
257.80	918.00
258.07	924.00
258.33	981.00
258.60	964.00
258.87	887.00
259.13	907.00
259.40	914.00
259.67	958.00
259.93	913.00
260.20	927.00
260.47	942.00
260.73	922.00
261.00	902.00
261.27	924.00
261.53	946.00
261.80	946.00
262.07	906.00
262.34	929.00
262.60	890.00
262.87	947.00
263.14	901.00
263.40	934.00
263.67	893.00
263.94	907.00
264.20	904.00
264.47	889.00
264.74	891.00
265.00	911.00
265.27	876.00
265.54	893.00
265.80	953.00
266.07	970.00
266.34	890.00
266.60	914.00
266.87	927.00
267.14	941.00
267.40	910.00
267.67	883.00
267.94	937.00
268.20	918.00
268.47	887.00
268.74	890.00
269.00	918.00
269.27	900.00
269.54	857.00
269.80	889.00
270.07	934.00
270.33	906.00
270.60	887.00
270.87	931.00
271.13	911.00
271.40	931.00
271.67	872.00
271.93	862.00
272.20	928.00
272.47	910.00
272.73	863.00
273.00	900.00
273.27	898.00
273.53	945.00
273.80	899.00
274.07	895.00
274.33	906.00
274.60	948.00
274.86	900.00
275.13	909.00
275.40	914.00
275.66	945.00
275.93	890.00
276.20	883.00
276.46	925.00
276.73	904.00
277.00	896.00
277.26	912.00
277.53	944.00
277.79	920.00
278.06	882.00
278.33	940.00
278.59	947.00
278.86	901.00
279.13	895.00
279.39	907.00
279.66	936.00
279.93	956.00
280.19	907.00
280.46	900.00
280.72	904.00
280.99	948.00
281.26	903.00
281.52	881.00
281.79	903.00
282.05	913.00
282.32	897.00
282.59	898.00
282.85	950.00
283.12	937.00
283.39	909.00
283.65	926.00
283.92	913.00
284.18	936.00
284.45	903.00
284.72	918.00
284.98	902.00
285.25	906.00
285.51	921.00
285.78	929.00
286.05	902.00
286.31	900.00
286.58	872.00
286.84	875.00
287.11	898.00
287.38	937.00
287.64	925.00
287.91	901.00
288.17	957.00
288.44	932.00
288.71	866.00
288.97	902.00
289.24	944.00
289.50	905.00
289.77	903.00
290.04	880.00
290.30	909.00
290.57	956.00
290.83	885.00
291.10	881.00
291.37	914.00
291.63	918.00
291.90	916.00
292.16	926.00
292.43	936.00
292.70	907.00
292.96	867.00
293.23	892.00
293.49	925.00
293.76	935.00
294.02	888.00
294.29	910.00
294.56	941.00
294.82	926.00
295.09	880.00
295.35	890.00
295.62	936.00
295.89	966.00
296.15	893.00
296.42	887.00
296.68	916.00
296.95	920.00
297.21	899.00
297.48	884.00
297.75	909.00
298.01	962.00
298.28	911.00
298.54	925.00
298.81	923.00
299.07	929.00
299.34	881.00
299.61	899.00
299.87	938.00
300.14	915.00
300.40	925.00
300.67	931.00
300.93	933.00
301.20	970.00
301.46	890.00
301.73	908.00
302.00	919.00
302.26	909.00
302.53	900.00
302.79	909.00
303.06	926.00
303.32	954.00
303.59	884.00
303.85	878.00
304.12	894.00
304.39	919.00
304.65	893.00
304.92	896.00
305.18	924.00
305.45	940.00
305.71	909.00
305.98	902.00
306.24	904.00
306.51	908.00
306.77	901.00
307.04	915.00
307.31	943.00
307.57	949.00
307.84	876.00
308.10	899.00
308.37	892.00
308.63	925.00
308.90	888.00
309.16	914.00
309.43	940.00
309.69	915.00
309.96	909.00
310.22	898.00
310.49	919.00
310.76	933.00
311.02	882.00
311.29	915.00
311.55	919.00
311.82	936.00
312.08	919.00
312.35	922.00
312.61	936.00
312.88	930.00
313.14	898.00
313.41	882.00
313.67	887.00
313.94	910.00
314.20	909.00
314.47	923.00
314.73	911.00
315.00	911.00
315.26	882.00
315.53	917.00
315.79	934.00
316.06	935.00
316.32	901.00
316.59	929.00
316.85	942.00
317.12	933.00
317.39	875.00
317.65	912.00
317.92	921.00
318.18	926.00
318.45	907.00
318.71	954.00
318.98	944.00
319.24	924.00
319.51	907.00
319.77	895.00
320.04	920.00
320.30	917.00
320.57	881.00
320.83	895.00
321.10	900.00
321.36	922.00
321.63	893.00
321.89	892.00
322.16	972.00
322.42	938.00
322.69	883.00
322.95	886.00
323.22	931.00
323.48	940.00
323.75	884.00
324.01	915.00
324.28	925.00
324.54	931.00
324.80	887.00
325.07	917.00
325.33	940.00
325.60	900.00
325.86	874.00
326.13	890.00
326.39	915.00
326.66	894.00
326.92	863.00
327.19	897.00
327.45	951.00
327.72	944.00
327.98	879.00
328.25	885.00
328.51	936.00
328.78	922.00
329.04	880.00
329.31	906.00
329.57	917.00
329.84	900.00
330.10	877.00
330.37	890.00
330.63	943.00
330.89	972.00
331.16	917.00
331.42	908.00
331.69	943.00
331.95	917.00
332.22	902.00
332.48	927.00
332.75	915.00
333.01	907.00
333.28	875.00
333.54	899.00
333.81	915.00
334.07	934.00
334.34	905.00
334.60	909.00
334.86	955.00
335.13	955.00
335.39	912.00
335.66	893.00
335.92	937.00
336.19	921.00
336.45	868.00
336.72	887.00
336.98	905.00
337.24	924.00
337.51	878.00
337.77	882.00
338.04	916.00
338.30	919.00
338.57	885.00
338.83	894.00
339.10	930.00
339.36	923.00
339.63	901.00
339.89	877.00
340.15	904.00
340.42	935.00
340.68	916.00
340.95	917.00
341.21	916.00
341.48	914.00
341.74	848.00
342.00	868.00
342.27	926.00
342.53	935.00
342.80	878.00
343.06	897.00
343.33	939.00
343.59	938.00
343.85	889.00
344.12	904.00
344.38	953.00
344.65	956.00
344.91	888.00
345.18	888.00
345.44	893.00
345.70	885.00
345.97	846.00
346.23	874.00
346.50	929.00
346.76	925.00
347.03	903.00
347.29	894.00
347.55	925.00
347.82	928.00
348.08	868.00
348.35	891.00
348.61	972.00
348.87	962.00
349.14	882.00
349.40	884.00
349.67	941.00
349.93	908.00
350.20	909.00
350.46	901.00
350.72	949.00
350.99	932.00
351.25	898.00
351.52	905.00
351.78	921.00
352.04	923.00
352.31	901.00
352.57	900.00
352.84	890.00
353.10	913.00
353.36	887.00
353.63	886.00
353.89	905.00
354.16	929.00
354.42	900.00
354.68	900.00
354.95	943.00
355.21	933.00
355.48	885.00
355.74	920.00
356.00	956.00
356.27	945.00
356.53	884.00
356.80	891.00
357.06	926.00
357.32	942.00
357.59	925.00
357.85	935.00
358.11	948.00
358.38	928.00
358.64	892.00
358.91	886.00
359.17	912.00
359.43	935.00
359.70	900.00
359.96	909.00
360.22	936.00
360.49	916.00
360.75	906.00
361.02	882.00
361.28	901.00
361.54	919.00
361.81	876.00
362.07	885.00
362.33	900.00
362.60	900.00
362.86	882.00
363.13	908.00
363.39	916.00
363.65	935.00
363.92	861.00
364.18	870.00
364.44	917.00
364.71	935.00
364.97	891.00
365.24	882.00
365.50	922.00
365.76	930.00
366.03	904.00
366.29	907.00
366.55	924.00
366.82	907.00
367.08	870.00
367.34	882.00
367.61	935.00
367.87	931.00
368.13	889.00
368.40	905.00
368.66	969.00
368.93	928.00
369.19	852.00
369.45	872.00
369.72	897.00
369.98	898.00
370.24	857.00
370.51	871.00
370.77	919.00
371.03	912.00
371.30	893.00
371.56	920.00
371.82	932.00
372.09	919.00
372.35	907.00
372.61	926.00
372.88	923.00
373.14	913.00
373.40	887.00
373.67	891.00
373.93	937.00
374.19	935.00
374.46	886.00
374.72	876.00
374.98	911.00
375.25	931.00
375.51	906.00
375.77	915.00
376.04	949.00
376.30	938.00
376.56	868.00
376.83	888.00
377.09	922.00
377.35	914.00
377.62	911.00
377.88	887.00
378.14	899.00
378.41	938.00
378.67	896.00
378.93	910.00
379.20	935.00
379.46	913.00
379.72	889.00
379.99	898.00
380.25	899.00
380.51	887.00
380.77	873.00
381.04	905.00
381.30	935.00
381.56	939.00
381.83	905.00
382.09	889.00
382.35	906.00
382.62	932.00
382.88	913.00
383.14	899.00
383.41	913.00
383.67	886.00
383.93	886.00
384.20	901.00
384.46	921.00
384.72	924.00
384.98	893.00
385.25	919.00
385.51	940.00
385.77	906.00
386.04	888.00
386.30	893.00
386.56	921.00
386.82	961.00
387.09	893.00
387.35	909.00
387.61	989.00
387.88	945.00
388.14	916.00
388.40	925.00
388.67	899.00
388.93	910.00
389.19	903.00
389.45	910.00
389.72	927.00
389.98	956.00
390.24	909.00
390.51	876.00
390.77	924.00
391.03	952.00
391.29	873.00
391.56	894.00
391.82	935.00
392.08	957.00
392.35	900.00
392.61	887.00
392.87	930.00
393.13	927.00
393.40	885.00
393.66	887.00
393.92	927.00
394.18	931.00
394.45	870.00
394.71	867.00
394.97	889.00
395.24	893.00
395.50	882.00
395.76	921.00
396.02	938.00
396.29	913.00
396.55	848.00
396.81	839.00
397.07	897.00
397.34	886.00
397.60	860.00
397.86	873.00
398.12	891.00
398.39	934.00
398.65	880.00
398.91	886.00
399.17	898.00
399.44	869.00
399.70	837.00
399.96	876.00
400.22	900.00
400.49	938.00
400.75	891.00
401.01	885.00
401.27	909.00
401.54	932.00
401.80	892.00
402.06	875.00
402.32	933.00
402.59	922.00
402.85	893.00
403.11	895.00
403.37	902.00
403.64	933.00
403.90	890.00
404.16	893.00
404.42	903.00
404.69	899.00
404.95	872.00
405.21	854.00
405.47	900.00
405.74	939.00
406.00	891.00
406.26	887.00
406.52	911.00
406.79	930.00
407.05	884.00
407.31	905.00
407.57	912.00
407.83	920.00
408.10	852.00
408.36	864.00
408.62	908.00
408.88	909.00
409.15	867.00
409.41	855.00
409.67	887.00
409.93	912.00
410.20	893.00
410.46	891.00
410.72	894.00
410.98	918.00
411.24	884.00
411.51	883.00
411.77	895.00
412.03	911.00
412.29	903.00
412.55	920.00
412.82	905.00
413.08	929.00
413.34	906.00
413.60	884.00
413.87	917.00
414.13	908.00
414.39	851.00
414.65	891.00
414.91	927.00
415.18	900.00
415.44	874.00
415.70	888.00
415.96	909.00
416.22	908.00
416.49	876.00
416.75	877.00
417.01	905.00
417.27	914.00
417.53	895.00
417.80	909.00
418.06	934.00
418.32	933.00
418.58	881.00
418.84	883.00
419.11	904.00
419.37	927.00
419.63	881.00
419.89	881.00
420.15	905.00
420.42	912.00
420.68	883.00
420.94	894.00
421.20	912.00
421.46	918.00
421.72	913.00
421.99	897.00
422.25	900.00
422.51	909.00
422.77	886.00
423.03	909.00
423.30	912.00
423.56	930.00
423.82	922.00
424.08	918.00
424.34	923.00
424.60	927.00
424.87	898.00
425.13	860.00
425.39	897.00
425.65	881.00
425.91	873.00
426.18	907.00
426.44	908.00
426.70	880.00
426.96	844.00
427.22	848.00
427.48	887.00
427.75	900.00
428.01	866.00
428.27	875.00
428.53	921.00
428.79	895.00
429.05	876.00
429.32	886.00
429.58	931.00
429.84	894.00
430.10	897.00
430.36	910.00
430.62	942.00
430.88	918.00
431.15	909.00
431.41	915.00
431.67	907.00
431.93	903.00
432.19	864.00
432.45	890.00
432.72	927.00
432.98	921.00
433.24	914.00
433.50	981.00
433.76	891.00
434.02	882.00
434.28	876.00
434.55	884.00
434.81	914.00
435.07	928.00
435.33	871.00
435.59	882.00
435.85	894.00
436.11	897.00
436.38	852.00
436.64	872.00
436.90	905.00
437.16	907.00
437.42	880.00
437.68	883.00
437.94	918.00
438.21	919.00
438.47	920.00
438.73	926.00
438.99	906.00
439.25	921.00
439.51	883.00
439.77	905.00
440.03	915.00
440.30	926.00
440.56	898.00
440.82	926.00
441.08	924.00
441.34	926.00
441.60	889.00
441.86	899.00
442.12	916.00
442.39	891.00
442.65	868.00
442.91	866.00
443.17	880.00
443.43	914.00
443.69	881.00
443.95	862.00
444.21	881.00
444.47	910.00
444.74	870.00
445.00	896.00
445.26	903.00
445.52	909.00
445.78	877.00
446.04	879.00
446.30	932.00
446.56	925.00
446.82	872.00
447.09	902.00
447.35	933.00
447.61	918.00
447.87	877.00
448.13	908.00
448.39	957.00
448.65	926.00
448.91	881.00
449.17	881.00
449.43	887.00
449.70	892.00
449.96	870.00
450.22	880.00
450.48	916.00
450.74	948.00
451.00	879.00
451.26	889.00
451.52	906.00
451.78	891.00
452.04	878.00
452.31	929.00
452.57	923.00
452.83	903.00
453.09	878.00
453.35	888.00
453.61	923.00
453.87	918.00
454.13	895.00
454.39	891.00
454.65	951.00
454.91	960.00
455.17	879.00
455.44	900.00
455.70	918.00
455.96	910.00
456.22	870.00
456.48	881.00
456.74	904.00
457.00	876.00
457.26	844.00
457.52	869.00
457.78	895.00
458.04	913.00
458.30	869.00
458.56	887.00
458.82	903.00
459.09	888.00
459.35	851.00
459.61	866.00
459.87	919.00
460.13	929.00
460.39	890.00
460.65	873.00
460.91	921.00
461.17	892.00
461.43	850.00
461.69	870.00
461.95	901.00
462.21	902.00
462.47	897.00
462.73	917.00
462.99	918.00
463.26	923.00
463.52	884.00
463.78	854.00
464.04	884.00
464.30	899.00
464.56	865.00
464.82	914.00
465.08	953.00
465.34	952.00
465.60	906.00
465.86	890.00
466.12	894.00
466.38	877.00
466.64	866.00
466.90	883.00
467.16	910.00
467.42	916.00
467.68	879.00
467.94	894.00
468.20	929.00
468.46	910.00
468.72	881.00
468.98	903.00
469.25	921.00
469.51	904.00
469.77	904.00
470.03	892.00
470.29	898.00
470.55	925.00
470.81	890.00
471.07	904.00
471.33	939.00
471.59	933.00
471.85	894.00
472.11	900.00
472.37	916.00
472.63	912.00
472.89	901.00
473.15	881.00
473.41	909.00
473.67	902.00
473.93	858.00
474.19	859.00
474.45	880.00
474.71	906.00
474.97	863.00
475.23	873.00
475.49	898.00
475.75	880.00
476.01	871.00
476.27	906.00
476.53	934.00
476.79	917.00
477.05	884.00
477.31	904.00
477.57	913.00
477.83	904.00
478.09	855.00
478.35	898.00
478.61	941.00
478.87	917.00
479.13	876.00
479.39	908.00
479.65	922.00
479.91	920.00
480.17	891.00
480.43	899.00
480.69	900.00
480.95	921.00
481.21	884.00
481.47	886.00
481.73	894.00
481.99	900.00
482.25	869.00
482.51	859.00
482.77	903.00
483.03	909.00
483.29	886.00
483.55	886.00
483.81	927.00
484.07	916.00
484.33	878.00
484.59	898.00
484.85	924.00
485.11	919.00
485.37	881.00
485.63	875.00
485.89	890.00
486.15	890.00
486.41	871.00
486.67	888.00
486.93	921.00
487.19	899.00
487.45	861.00
487.71	875.00
487.97	935.00
488.23	920.00
488.49	880.00
488.75	878.00
489.01	902.00
489.27	932.00
489.53	886.00
489.79	877.00
490.05	889.00
490.31	927.00
490.57	897.00
490.83	931.00
491.08	909.00
491.34	887.00
491.60	877.00
491.86	913.00
492.12	967.00
492.38	931.00
492.64	884.00
492.90	873.00
493.16	911.00
493.42	908.00
493.68	872.00
493.94	901.00
494.20	880.00
494.46	896.00
494.72	882.00
494.98	875.00
495.24	882.00
495.50	897.00
495.76	894.00
496.02	891.00
496.28	897.00
496.54	911.00
496.80	898.00
497.05	883.00
497.31	927.00
497.57	918.00
497.83	891.00
498.09	909.00
498.35	938.00
498.61	926.00
498.87	895.00
499.13	905.00
499.39	901.00
499.65	899.00
499.91	909.00
500.17	867.00
500.43	954.00
500.69	985.00
500.95	874.00
501.20	894.00
501.46	921.00
501.72	940.00
501.98	921.00
502.24	900.00
502.50	912.00
502.76	901.00
503.02	895.00
503.28	906.00
503.54	957.00
503.80	950.00
504.06	915.00
504.32	908.00
504.58	925.00
504.83	913.00
505.09	879.00
505.35	908.00
505.61	890.00
505.87	892.00
506.13	884.00
506.39	864.00
506.65	914.00
506.91	957.00
507.17	897.00
507.43	882.00
507.68	882.00
507.94	935.00
508.20	855.00
508.46	860.00
508.72	929.00
508.98	948.00
509.24	872.00
509.50	907.00
509.76	901.00
510.02	912.00
510.28	874.00
510.53	874.00
510.79	904.00
511.05	900.00
511.31	875.00
511.57	878.00
511.83	907.00
512.09	919.00
512.35	881.00
512.61	898.00
512.87	913.00
513.12	922.00
513.38	868.00
513.64	897.00
513.90	908.00
514.16	925.00
514.42	887.00
514.68	893.00
514.94	911.00
515.20	912.00
515.45	876.00
515.71	879.00
515.97	895.00
516.23	886.00
516.49	878.00
516.75	876.00
517.01	899.00
517.27	909.00
517.53	862.00
517.78	887.00
518.04	914.00
518.30	884.00
518.56	837.00
518.82	907.00
519.08	925.00
519.34	890.00
519.60	885.00
519.85	904.00
520.11	907.00
520.37	901.00
520.63	882.00
520.89	909.00
521.15	921.00
521.41	902.00
521.66	885.00
521.92	879.00
522.18	926.00
522.44	924.00
522.70	883.00
522.96	874.00
523.22	913.00
523.48	910.00
523.73	884.00
523.99	889.00
524.25	937.00
524.51	919.00
524.77	868.00
525.03	871.00
525.29	899.00
525.54	915.00
525.80	893.00
526.06	885.00
526.32	888.00
526.58	897.00
526.84	868.00
527.09	867.00
527.35	873.00
527.61	879.00
527.87	867.00
528.13	889.00
528.39	885.00
528.65	889.00
528.90	842.00
529.16	871.00
529.42	888.00
529.68	900.00
529.94	874.00
530.20	889.00
530.45	880.00
530.71	894.00
530.97	861.00
531.23	873.00
531.49	916.00
531.75	901.00
532.00	875.00
532.26	876.00
532.52	913.00
532.78	888.00
533.04	858.00
533.30	865.00
533.55	901.00
533.81	902.00
534.07	849.00
534.33	872.00
534.59	897.00
534.85	902.00
535.10	859.00
535.36	849.00
535.62	892.00
535.88	889.00
536.14	849.00
536.39	859.00
536.65	911.00
536.91	918.00
537.17	876.00
537.43	884.00
537.69	934.00
537.94	910.00
538.20	859.00
538.46	869.00
538.72	895.00
538.98	911.00
539.23	869.00
539.49	865.00
539.75	917.00
540.01	899.00
540.27	879.00
540.52	925.00
540.78	916.00
541.04	927.00
541.30	869.00
541.56	858.00
541.81	944.00
542.07	997.00
542.33	898.00
542.59	881.00
542.85	895.00
543.10	914.00
543.36	882.00
543.62	914.00
543.88	900.00
544.14	903.00
544.39	875.00
544.65	879.00
544.91	933.00
545.17	910.00
545.43	875.00
545.68	891.00
545.94	900.00
546.20	906.00
546.46	874.00
546.71	889.00
546.97	909.00
547.23	908.00
547.49	869.00
547.75	879.00
548.00	901.00
548.26	928.00
548.52	881.00
548.78	877.00
549.03	893.00
549.29	891.00
549.55	870.00
549.81	874.00
550.07	909.00
550.32	912.00
550.58	858.00
550.84	897.00
551.10	897.00
551.35	897.00
551.61	865.00
551.87	894.00
552.13	912.00
552.39	883.00
552.64	852.00
552.90	876.00
553.16	914.00
553.42	909.00
553.67	858.00
553.93	880.00
554.19	922.00
554.45	923.00
554.70	880.00
554.96	855.00
555.22	884.00
555.48	910.00
555.73	882.00
555.99	881.00
556.25	916.00
556.51	894.00
556.76	877.00
557.02	914.00
557.28	936.00
557.54	915.00
557.79	882.00
558.05	909.00
558.31	885.00
558.57	916.00
558.82	878.00
559.08	849.00
559.34	849.00
559.60	900.00
559.85	878.00
560.11	887.00
560.37	883.00
560.63	879.00
560.88	863.00
561.14	876.00
561.40	920.00
561.66	887.00
561.91	867.00
562.17	890.00
562.43	916.00
562.68	921.00
562.94	904.00
563.20	914.00
563.46	908.00
563.71	919.00
563.97	885.00
564.23	894.00
564.49	911.00
564.74	900.00
565.00	871.00
565.26	868.00
565.51	880.00
565.77	881.00
566.03	873.00
566.29	909.00
566.54	899.00
566.80	887.00
567.06	871.00
567.31	889.00
567.57	919.00
567.83	883.00
568.09	884.00
568.34	885.00
568.60	892.00
568.86	912.00
569.11	889.00
569.37	871.00
569.63	897.00
569.89	914.00
570.14	837.00
570.40	849.00
570.66	878.00
570.91	875.00
571.17	870.00
571.43	924.00
571.69	927.00
571.94	940.00
572.20	883.00
572.46	896.00
572.71	920.00
572.97	906.00
573.23	870.00
573.48	868.00
573.74	892.00
574.00	893.00
574.26	857.00
574.51	884.00
574.77	913.00
575.03	897.00
575.28	865.00
575.54	863.00
575.80	883.00
576.05	896.00
576.31	837.00
576.57	854.00
576.82	890.00
577.08	902.00
577.34	863.00
577.59	887.00
577.85	917.00
578.11	875.00
578.37	868.00
578.62	862.00
578.88	908.00
579.14	931.00
579.39	895.00
579.65	901.00
579.91	894.00
580.16	892.00
580.42	871.00
580.68	888.00
580.93	916.00
581.19	891.00
581.45	864.00
581.70	897.00
581.96	918.00
582.22	909.00
582.47	886.00
582.73	900.00
582.99	929.00
583.24	902.00
583.50	868.00
583.76	891.00
584.01	905.00
584.27	900.00
584.53	875.00
584.78	886.00
585.04	875.00
585.30	907.00
585.55	892.00
585.81	886.00
586.07	916.00
586.32	904.00
586.58	868.00
586.83	871.00
587.09	909.00
587.35	904.00
587.60	867.00
587.86	860.00
588.12	894.00
588.37	915.00
588.63	887.00
588.89	892.00
589.14	901.00
589.40	908.00
589.66	873.00
589.91	890.00
590.17	906.00
590.43	858.00
590.68	854.00
590.94	880.00
591.19	906.00
591.45	889.00
591.71	860.00
591.96	885.00
592.22	921.00
592.48	924.00
592.73	869.00
592.99	862.00
593.25	892.00
593.50	911.00
593.76	863.00
594.01	868.00
594.27	909.00
594.53	906.00
594.78	865.00
595.04	892.00
595.30	899.00
595.55	907.00
595.81	854.00
596.06	902.00
596.32	942.00
596.58	916.00
596.83	879.00
597.09	911.00
597.35	909.00
597.60	892.00
597.86	861.00
598.11	896.00
598.37	927.00
598.63	906.00
598.88	870.00
599.14	873.00
599.39	928.00
599.65	909.00
599.91	837.00
600.16	866.00
600.42	904.00
600.67	922.00
600.93	865.00
601.19	898.00
601.44	933.00
601.70	912.00
601.95	879.00
602.21	899.00
602.47	888.00
602.72	911.00
602.98	877.00
603.23	892.00
603.49	914.00
603.75	921.00
604.00	880.00
604.26	869.00
604.51	866.00
604.77	902.00
605.03	848.00
605.28	867.00
605.54	930.00
605.79	934.00
606.05	848.00
606.31	856.00
606.56	914.00
606.82	946.00
607.07	880.00
607.33	896.00
607.59	909.00
607.84	889.00
608.10	846.00
608.35	887.00
608.61	910.00
608.86	912.00
609.12	890.00
609.38	925.00
609.63	921.00
609.89	913.00
610.14	846.00
610.40	856.00
610.65	909.00
610.91	902.00
611.17	875.00
611.42	887.00
611.68	937.00
611.93	930.00
612.19	906.00
612.44	916.00
612.70	932.00
612.96	896.00
613.21	867.00
613.47	866.00
613.72	891.00
613.98	940.00
614.23	882.00
614.49	905.00
614.75	924.00
615.00	916.00
615.26	885.00
615.51	863.00
615.77	884.00
616.02	942.00
616.28	897.00
616.53	904.00
616.79	905.00
617.05	906.00
617.30	874.00
617.56	920.00
617.81	933.00
618.07	913.00
618.32	887.00
618.58	915.00
618.83	956.00
619.09	953.00
619.34	898.00
619.60	900.00
619.86	933.00
620.11	943.00
620.37	903.00
620.62	895.00
620.88	942.00
621.13	950.00
621.39	932.00
621.64	947.00
621.90	978.00
622.15	956.00
622.41	937.00
622.66	955.00
622.92	974.00
623.18	984.00
623.43	946.00
623.69	960.00
623.94	968.00
624.20	974.00
624.45	955.00
624.71	984.00
624.96	993.00
625.22	1052.00
625.47	1028.00
625.73	1049.00
625.98	1066.00
626.24	1059.00
626.49	1056.00
626.75	1075.00
627.00	1131.00
627.26	1134.00
627.51	1101.00
627.77	1133.00
628.02	1141.00
628.28	1136.00
628.53	1127.00
628.79	1188.00
629.05	1266.00
629.30	1237.00
629.56	1219.00
629.81	1282.00
630.07	1371.00
630.32	1448.00
630.58	1458.00
630.83	1521.00
631.09	1588.00
631.34	1653.00
631.60	1647.00
631.85	1729.00
632.11	1893.00
632.36	2125.00
632.62	2396.00
632.87	2628.00
633.13	2786.00
633.38	3122.00
633.64	3617.00
633.89	4426.00
634.15	5413.00
634.40	6971.00
634.66	9360.00
634.91	11812.00
635.17	14529.00
635.42	15734.00
635.68	13943.00
635.93	10457.00
636.18	8293.00
636.44	7002.00
636.69	5621.00
636.95	4572.00
637.20	3949.00
637.46	3281.00
637.71	2713.00
637.97	2350.00
638.22	2109.00
638.48	1866.00
638.73	1756.00
638.99	1693.00
639.24	1652.00
639.50	1538.00
639.75	1404.00
640.01	1342.00
640.26	1316.00
640.52	1247.00
640.77	1154.00
641.03	1154.00
641.28	1146.00
641.54	1116.00
641.79	1057.00
642.04	1090.00
642.30	1083.00
642.55	1058.00
642.81	1014.00
643.06	1015.00
643.32	1066.00
643.57	1080.00
643.83	1011.00
644.08	974.00
644.34	978.00
644.59	1003.00
644.85	959.00
645.10	958.00
645.35	977.00
645.61	968.00
645.86	929.00
646.12	929.00
646.37	962.00
646.63	961.00
646.88	880.00
647.14	908.00
647.39	938.00
647.65	957.00
647.90	885.00
648.15	928.00
648.41	926.00
648.66	937.00
648.92	900.00
649.17	915.00
649.43	934.00
649.68	931.00
649.94	909.00
650.19	899.00
650.44	917.00
650.70	916.00
650.95	864.00
651.21	892.00
651.46	932.00
651.72	917.00
651.97	901.00
652.23	890.00
652.48	911.00
652.73	914.00
652.99	878.00
653.24	897.00
653.50	890.00
653.75	896.00
654.01	881.00
654.26	894.00
654.51	904.00
654.77	913.00
655.02	891.00
655.28	885.00
655.53	880.00
655.79	920.00
656.04	892.00
656.29	897.00
656.55	895.00
656.80	908.00
657.06	861.00
657.31	874.00
657.56	889.00
657.82	877.00
658.07	865.00
658.33	892.00
658.58	911.00
658.84	913.00
659.09	884.00
659.34	881.00
659.60	900.00
659.85	900.00
660.11	853.00
660.36	879.00
660.61	896.00
660.87	866.00
661.12	840.00
661.38	875.00
661.63	892.00
661.88	891.00
662.14	895.00
662.39	884.00
662.65	935.00
662.90	942.00
663.15	882.00
663.41	888.00
663.66	940.00
663.92	945.00
664.17	882.00
664.42	886.00
664.68	906.00
664.93	892.00
665.19	863.00
665.44	876.00
665.69	877.00
665.95	915.00
666.20	870.00
666.45	910.00
666.71	915.00
666.96	910.00
667.22	849.00
667.47	865.00
667.72	869.00
667.98	882.00
668.23	848.00
668.49	900.00
668.74	928.00
668.99	912.00
669.25	878.00
669.50	865.00
669.75	888.00
670.01	901.00
670.26	862.00
670.52	880.00
670.77	898.00
671.02	880.00
671.28	858.00
671.53	895.00
671.78	906.00
672.04	901.00
672.29	884.00
672.54	857.00
672.80	905.00
673.05	913.00
673.31	859.00
673.56	905.00
673.81	933.00
674.07	914.00
674.32	881.00
674.57	879.00
674.83	893.00
675.08	927.00
675.33	899.00
675.59	869.00
675.84	910.00
676.09	896.00
676.35	873.00
676.60	893.00
676.86	895.00
677.11	938.00
677.36	881.00
677.62	910.00
677.87	948.00
678.12	960.00
678.38	880.00
678.63	899.00
678.88	935.00
679.14	919.00
679.39	866.00
679.64	894.00
679.90	874.00
680.15	896.00
680.40	887.00
680.66	860.00
680.91	902.00
681.16	897.00
681.42	865.00
681.67	881.00
681.92	900.00
682.18	941.00
682.43	865.00
682.68	864.00
682.94	877.00
683.19	864.00
683.44	867.00
683.70	902.00
683.95	905.00
684.20	900.00
684.46	891.00
684.71	896.00
684.96	872.00
685.22	896.00
685.47	887.00
685.72	892.00
685.98	910.00
686.23	861.00
686.48	851.00
686.74	884.00
686.99	931.00
687.24	899.00
687.50	855.00
687.75	872.00
688.00	891.00
688.25	895.00
688.51	878.00
688.76	914.00
689.01	878.00
689.27	884.00
689.52	842.00
689.77	871.00
690.03	863.00
690.28	875.00
690.53	878.00
690.79	903.00
691.04	904.00
691.29	907.00
691.54	846.00
691.80	885.00
692.05	894.00
692.30	905.00
692.56	880.00
692.81	897.00
693.06	898.00
693.32	890.00
693.57	872.00
693.82	905.00
694.07	907.00
694.33	908.00
694.58	853.00
694.83	900.00
695.09	898.00
695.34	913.00
695.59	882.00
695.84	888.00
696.10	909.00
696.35	909.00
696.60	855.00
696.86	868.00
697.11	902.00
697.36	907.00
697.61	855.00
697.87	873.00
698.12	886.00
698.37	891.00
698.63	885.00
698.88	878.00
699.13	916.00
699.38	908.00
699.64	860.00
699.89	872.00
700.14	872.00
700.39	888.00
700.65	873.00
700.90	901.00
701.15	890.00
701.40	913.00
701.66	876.00
701.91	902.00
702.16	905.00
702.42	897.00
702.67	850.00
702.92	855.00
703.17	883.00
703.43	910.00
703.68	877.00
703.93	917.00
704.18	920.00
704.44	903.00
704.69	873.00
704.94	893.00
705.19	885.00
705.45	915.00
705.70	894.00
705.95	878.00
706.20	877.00
706.46	900.00
706.71	871.00
706.96	871.00
707.21	894.00
707.47	899.00
707.72	882.00
707.97	895.00
708.22	904.00
708.48	932.00
708.73	864.00
708.98	851.00
709.23	889.00
709.49	893.00
709.74	884.00
709.99	871.00
710.24	889.00
710.50	905.00
710.75	896.00
711.00	905.00
711.25	903.00
711.50	884.00
711.76	860.00
712.01	852.00
712.26	863.00
712.51	905.00
712.77	862.00
713.02	881.00
713.27	882.00
713.52	885.00
713.78	882.00
714.03	889.00
714.28	883.00
714.53	892.00
714.78	863.00
715.04	893.00
715.29	905.00
715.54	900.00
715.79	854.00
716.05	883.00
716.30	908.00
716.55	915.00
716.80	882.00
717.05	905.00
717.31	905.00
717.56	907.00
717.81	873.00
718.06	851.00
718.31	842.00
718.57	894.00
718.82	883.00
719.07	902.00
719.32	896.00
719.57	915.00
719.83	865.00
720.08	895.00
720.33	888.00
720.58	869.00
720.83	834.00
721.09	924.00
721.34	920.00
721.59	898.00
721.84	871.00
722.09	882.00
722.35	907.00
722.60	893.00
722.85	868.00
723.10	890.00
723.35	876.00
723.61	890.00
723.86	883.00
724.11	892.00
724.36	890.00
724.61	885.00
724.87	867.00
725.12	863.00
725.37	887.00
725.62	878.00
725.87	865.00
726.12	869.00
726.38	862.00
726.63	906.00
726.88	874.00
727.13	896.00
727.38	889.00
727.64	893.00
727.89	859.00
728.14	864.00
728.39	852.00
728.64	886.00
728.89	865.00
729.15	900.00
729.40	903.00
729.65	916.00
729.90	857.00
730.15	892.00
730.40	904.00
730.66	890.00
730.91	869.00
731.16	900.00
731.41	893.00
731.66	897.00
731.91	878.00
732.17	908.00
732.42	899.00
732.67	877.00
732.92	865.00
733.17	888.00
733.42	902.00
733.68	901.00
733.93	870.00
734.18	889.00
734.43	874.00
734.68	872.00
734.93	869.00
735.18	900.00
735.44	901.00
735.69	914.00
735.94	841.00
736.19	878.00
736.44	865.00
736.69	910.00
736.95	874.00
737.20	894.00
737.45	910.00
737.70	900.00
737.95	898.00
738.20	896.00
738.45	901.00
738.70	908.00
738.96	877.00
739.21	902.00
739.46	913.00
739.71	915.00
739.96	862.00
740.21	908.00
740.46	966.00
740.72	934.00
740.97	876.00
741.22	929.00
741.47	880.00
741.72	887.00
741.97	865.00
742.22	891.00
742.47	906.00
742.73	898.00
742.98	853.00
743.23	851.00
743.48	876.00
743.73	896.00
743.98	889.00
744.23	888.00
744.48	897.00
744.74	884.00
744.99	861.00
745.24	902.00
745.49	884.00
745.74	910.00
745.99	868.00
746.24	888.00
746.49	879.00
746.74	881.00
747.00	880.00
747.25	885.00
747.50	850.00
747.75	854.00
748.00	838.00
748.25	876.00
748.50	890.00
748.75	913.00
749.00	906.00
749.26	933.00
749.51	905.00
749.76	893.00
750.01	858.00
750.26	896.00
750.51	933.00
750.76	891.00
751.01	846.00
751.26	864.00
751.51	900.00
751.77	895.00
752.02	877.00
752.27	877.00
752.52	900.00
752.77	911.00
753.02	872.00
753.27	896.00
753.52	875.00
753.77	852.00
754.02	850.00
754.27	885.00
754.52	875.00
754.78	904.00
755.03	882.00
755.28	894.00
755.53	900.00
755.78	896.00
756.03	864.00
756.28	897.00
756.53	911.00
756.78	906.00
757.03	869.00
757.28	903.00
757.53	910.00
757.79	870.00
758.04	829.00
758.29	894.00
758.54	899.00
758.79	886.00
759.04	858.00
759.29	851.00
759.54	865.00
759.79	883.00
760.04	871.00
760.29	874.00
760.54	870.00
760.79	896.00
761.04	855.00
761.29	866.00
761.55	858.00
761.80	875.00
762.05	861.00
762.30	881.00
762.55	876.00
762.80	907.00
763.05	892.00
763.30	905.00
763.55	913.00
763.80	887.00
764.05	849.00
764.30	891.00
764.55	923.00
764.80	890.00
765.05	861.00
765.30	904.00
765.55	905.00
765.80	881.00
766.05	849.00
766.30	885.00
766.56	891.00
766.81	882.00
767.06	883.00
767.31	892.00
767.56	880.00
767.81	902.00
768.06	873.00
768.31	896.00
768.56	894.00
768.81	949.00
769.06	870.00
769.31	882.00
769.56	881.00
769.81	909.00
770.06	861.00
770.31	861.00
770.56	890.00
770.81	865.00
771.06	849.00
771.31	883.00
771.56	882.00
771.81	896.00
772.06	847.00
772.31	897.00
772.56	893.00
772.81	914.00
773.06	858.00
773.31	880.00
773.56	897.00
773.81	855.00
774.06	857.00
774.31	876.00
774.56	886.00
774.81	907.00
775.06	880.00
775.31	897.00
775.56	900.00
775.81	894.00
776.06	858.00
776.31	885.00
776.56	884.00
776.82	897.00
777.07	860.00
777.32	888.00
777.57	889.00
777.82	934.00
778.07	874.00
778.32	874.00
778.57	903.00
778.82	917.00
779.07	865.00
779.32	862.00
779.57	881.00
779.82	884.00
780.07	868.00
780.32	888.00
780.56	884.00
780.81	911.00
781.06	847.00
781.31	868.00
781.56	914.00
781.81	903.00
782.06	870.00
782.31	914.00
782.56	898.00
782.81	925.00
783.06	885.00
783.31	871.00
783.56	882.00
783.81	898.00
784.06	869.00
784.31	876.00
784.56	860.00
784.81	920.00
785.06	884.00
785.31	892.00
785.56	874.00
785.81	863.00
786.06	851.00
786.31	884.00
786.56	869.00
786.81	894.00
787.06	894.00
787.31	880.00
787.56	882.00
787.81	881.00
788.06	854.00
788.31	892.00
788.56	871.00
788.81	920.00
789.06	875.00
789.31	882.00
789.56	890.00
789.81	885.00
790.06	862.00
790.31	917.00
790.56	890.00
790.80	890.00
791.05	858.00
791.30	853.00
791.55	854.00
791.80	888.00
792.05	880.00
792.30	878.00
792.55	882.00
792.80	902.00
793.05	869.00
793.30	869.00
793.55	895.00
793.80	906.00
794.05	867.00
794.30	868.00
794.55	863.00
794.80	892.00
795.05	862.00
795.30	869.00
795.54	864.00
795.79	901.00
796.04	871.00
796.29	889.00
796.54	886.00
796.79	906.00
797.04	882.00
797.29	885.00
797.54	899.00
797.79	897.00
798.04	860.00
798.29	882.00
798.54	867.00
798.79	886.00
799.04	849.00
799.29	866.00
799.53	889.00
799.78	901.00
800.03	863.00
800.28	861.00
800.53	874.00
800.78	937.00
801.03	876.00
801.28	874.00
801.53	875.00
801.78	912.00
802.03	874.00
802.28	884.00
802.52	909.00
802.77	932.00
803.02	896.00
803.27	898.00
803.52	859.00
803.77	894.00
804.02	890.00
804.27	917.00
804.52	898.00
804.77	919.00
805.02	880.00
805.27	898.00
805.51	878.00
805.76	901.00
806.01	844.00
806.26	860.00
806.51	872.00
806.76	918.00
807.01	880.00
807.26	865.00
807.51	898.00
807.76	871.00
808.00	848.00
808.25	885.00
808.50	906.00
808.75	886.00
809.00	877.00
809.25	882.00
809.50	896.00
809.75	922.00
810.00	893.00
810.24	872.00
810.49	854.00
810.74	867.00
810.99	882.00
811.24	881.00
811.49	884.00
811.74	910.00
811.99	841.00
812.24	873.00
812.48	868.00
812.73	860.00
812.98	817.00
813.23	838.00
813.48	871.00
813.73	873.00
813.98	845.00
814.23	871.00
814.47	869.00
814.72	871.00
814.97	859.00
815.22	890.00
815.47	876.00
815.72	892.00
815.97	853.00
816.22	878.00
816.46	884.00
816.71	912.00
816.96	875.00
817.21	885.00
817.46	869.00
817.71	878.00
817.96	868.00
818.20	865.00
818.45	847.00
818.70	879.00
818.95	858.00
819.20	877.00
819.45	870.00
819.70	878.00
819.94	859.00
820.19	868.00
820.44	881.00
820.69	912.00
820.94	874.00
821.19	890.00
821.44	950.00
821.68	949.00
821.93	879.00
822.18	891.00
822.43	908.00
822.68	912.00
822.93	859.00
823.17	866.00
823.42	880.00
823.67	868.00
823.92	852.00
824.17	878.00
824.42	886.00
824.67	907.00
824.91	870.00
825.16	889.00
825.41	900.00
825.66	898.00
825.91	849.00
826.16	869.00
826.40	904.00
826.65	912.00
826.90	865.00
827.15	880.00
827.40	888.00
827.65	910.00
827.89	825.00
828.14	851.00
828.39	883.00
828.64	890.00
828.89	852.00
829.13	863.00
829.38	871.00
829.63	893.00
829.88	849.00
830.13	851.00
830.38	860.00
830.62	892.00
830.87	869.00
831.12	890.00
831.37	896.00
831.62	916.00
831.86	867.00
832.11	863.00
832.36	859.00
832.61	918.00
832.86	877.00
833.10	872.00
833.35	892.00
833.60	912.00
833.85	897.00
834.10	901.00
834.35	920.00
834.59	920.00
834.84	866.00
835.09	893.00
835.34	877.00
835.59	887.00
835.83	884.00
836.08	889.00
836.33	896.00
836.58	912.00
836.83	878.00
837.07	881.00
837.32	890.00
837.57	886.00
837.82	865.00
838.06	896.00
838.31	910.00
838.56	925.00
838.81	863.00
839.06	892.00
839.30	899.00
839.55	912.00
839.80	865.00
840.05	886.00
840.30	908.00
840.54	925.00
840.79	856.00
841.04	874.00
841.29	893.00
841.53	893.00
841.78	887.00
842.03	868.00
842.28	865.00
842.53	881.00
842.77	888.00
843.02	896.00
843.27	876.00
843.52	896.00
843.76	888.00
844.01	906.00
844.26	874.00
844.51	896.00
844.75	857.00
845.00	853.00
845.25	876.00
845.50	918.00
845.75	878.00
845.99	900.00
846.24	893.00
846.49	907.00
846.74	845.00
846.98	862.00
847.23	870.00
847.48	890.00
847.73	855.00
847.97	878.00
848.22	926.00
848.47	919.00
848.72	860.00
848.96	856.00
849.21	900.00
849.46	864.00
849.71	861.00
849.95	881.00
850.20	873.00
850.45	881.00
850.70	830.00
850.94	878.00
851.19	873.00
851.44	873.00
851.69	830.00
851.93	869.00
852.18	884.00
852.43	902.00
852.68	892.00
852.92	900.00
853.17	917.00
853.42	915.00
853.66	861.00
853.91	907.00
854.16	883.00
854.41	933.00
854.65	868.00
854.90	875.00
855.15	897.00
855.40	900.00
855.64	868.00
855.89	870.00
856.14	867.00
856.39	881.00
856.63	867.00
856.88	880.00
857.13	878.00
857.37	875.00
857.62	841.00
857.87	857.00
858.12	877.00
858.36	908.00
858.61	833.00
858.86	862.00
859.10	901.00
859.35	901.00
859.60	845.00
859.85	834.00
860.09	861.00
860.34	907.00
860.59	881.00
860.83	877.00
861.08	861.00
861.33	912.00
861.58	875.00
861.82	869.00
862.07	901.00
862.32	885.00
862.56	849.00
862.81	867.00
863.06	885.00
863.30	883.00
863.55	864.00
863.80	876.00
864.05	880.00
864.29	892.00
864.54	865.00
864.79	878.00
865.03	880.00
865.28	894.00
865.53	876.00
865.77	865.00
866.02	892.00
866.27	891.00
866.51	871.00
866.76	857.00
867.01	863.00
867.26	900.00
867.50	871.00
867.75	848.00
868.00	901.00
868.24	909.00
868.49	873.00
868.74	889.00
868.98	885.00
869.23	881.00
869.48	882.00
869.72	878.00
869.97	885.00
870.22	910.00
870.46	883.00
870.71	905.00
870.96	896.00
871.20	909.00
871.45	859.00
871.70	887.00
871.94	901.00
872.19	920.00
872.44	902.00
872.68	872.00
872.93	876.00
873.18	879.00
873.42	873.00
873.67	891.00
873.92	919.00
874.16	897.00
874.41	872.00
874.66	896.00
874.90	895.00
875.15	928.00
875.40	898.00
875.64	883.00
875.89	867.00
876.14	896.00
876.38	871.00
876.63	881.00
876.88	891.00
877.12	900.00
877.37	866.00
877.62	907.00
877.86	884.00
878.11	892.00
878.36	847.00
878.60	880.00
878.85	878.00
879.09	889.00
879.34	880.00
879.59	898.00
879.83	923.00
880.08	931.00
880.33	892.00
880.57	892.00
880.82	906.00
881.07	904.00
881.31	864.00
881.56	864.00
881.80	862.00
882.05	895.00
882.30	842.00
882.54	859.00
882.79	902.00
883.04	942.00
883.28	896.00
883.53	876.00
883.77	880.00
884.02	889.00
884.27	852.00
884.51	853.00
884.76	877.00
885.01	903.00
885.25	835.00
885.50	878.00
885.74	880.00
885.99	929.00
886.24	876.00
886.48	892.00
886.73	900.00
886.98	922.00
887.22	891.00
887.47	891.00
887.71	909.00
887.96	900.00
888.21	862.00
888.45	853.00
888.70	867.00
888.94	914.00
889.19	853.00
889.44	873.00
889.68	884.00
889.93	917.00
890.17	869.00
890.42	854.00
890.67	906.00
890.91	972.00
891.16	865.00
891.40	857.00
891.65	872.00
891.90	908.00
892.14	852.00
892.39	886.00
892.63	896.00
892.88	925.00
893.13	892.00
893.37	873.00
893.62	875.00
893.86	895.00
894.11	861.00
894.36	881.00
894.60	882.00
894.85	865.00
895.09	862.00
895.34	917.00
895.59	893.00
895.83	894.00
896.08	848.00
896.32	860.00
896.57	865.00
896.81	886.00
897.06	861.00
897.31	866.00
897.55	884.00
897.80	885.00
898.04	846.00
898.29	850.00
898.53	868.00
898.78	897.00
899.03	877.00
899.27	865.00
899.52	893.00
899.76	925.00
900.01	881.00
900.25	903.00
900.50	905.00
900.75	927.00
900.99	884.00
901.24	927.00
901.48	897.00
901.73	905.00
901.97	858.00
902.22	887.00
902.47	899.00
902.71	878.00
902.96	847.00
903.20	866.00
903.45	908.00
903.69	908.00
903.94	875.00
904.18	862.00
904.43	870.00
904.68	890.00
904.92	858.00
905.17	872.00
905.41	888.00
905.66	906.00
905.90	896.00
906.15	887.00
906.39	892.00
906.64	880.00
906.88	847.00
907.13	873.00
907.38	896.00
907.62	919.00
907.87	857.00
908.11	894.00
908.36	864.00
908.60	896.00
908.85	819.00
909.09	862.00
909.34	866.00
909.58	883.00
909.83	853.00
910.07	857.00
910.32	936.00
910.56	937.00
910.81	861.00
911.06	895.00
911.30	880.00
911.55	881.00
911.79	863.00
912.04	870.00
912.28	858.00
912.53	898.00
912.77	873.00
913.02	885.00
913.26	877.00
913.51	903.00
913.75	863.00
914.00	860.00
914.24	880.00
914.49	893.00
914.73	873.00
914.98	901.00
915.22	912.00
915.47	882.00
915.71	857.00
915.96	876.00
916.20	888.00
916.45	861.00
916.69	845.00
916.94	859.00
917.18	885.00
917.43	894.00
917.67	858.00
917.92	853.00
918.16	891.00
918.41	904.00
918.65	870.00
918.90	856.00
919.14	850.00
919.39	882.00
919.63	854.00
919.88	848.00
920.12	889.00
920.37	889.00
920.61	858.00
920.86	894.00
921.10	897.00
921.35	884.00
921.59	845.00
921.84	873.00
922.08	892.00
922.33	913.00
922.57	848.00
922.82	853.00
923.06	860.00
923.31	886.00
923.55	830.00
923.80	869.00
924.04	884.00
924.29	912.00
924.53	883.00
924.78	876.00
925.02	870.00
925.27	907.00
925.51	876.00
925.76	881.00
926.00	874.00
926.25	891.00
926.49	855.00
926.73	881.00
926.98	912.00
927.22	916.00
927.47	883.00
927.71	876.00
927.96	905.00
928.20	896.00
928.45	866.00
928.69	902.00
928.94	900.00
929.18	882.00
929.43	882.00
929.67	892.00
929.91	878.00
930.16	890.00
930.40	843.00
930.65	852.00
930.89	871.00
931.14	919.00
931.38	863.00
931.63	877.00
931.87	886.00
932.12	896.00
932.36	860.00
932.60	870.00
932.85	897.00
933.09	880.00
933.34	854.00
933.58	874.00
933.83	870.00
934.07	901.00
934.32	878.00
934.56	906.00
934.80	922.00
935.05	927.00
935.29	873.00
935.54	887.00
935.78	894.00
936.03	908.00
936.27	845.00
936.52	866.00
936.76	884.00
937.00	895.00
937.25	882.00
937.49	906.00
937.74	907.00
937.98	900.00
938.23	850.00
938.47	853.00
938.71	880.00
938.96	897.00
939.20	852.00
939.45	883.00
939.69	881.00
939.94	901.00
940.18	857.00
940.42	893.00
940.67	897.00
940.91	890.00
941.16	870.00
941.40	862.00
941.64	882.00
941.89	887.00
942.13	841.00
942.38	883.00
942.62	956.00
942.87	928.00
943.11	893.00
943.35	874.00
943.60	914.00
943.84	920.00
944.09	883.00
944.33	896.00
944.57	888.00
944.82	875.00
945.06	851.00
945.31	882.00
945.55	873.00
945.79	900.00
946.04	862.00
946.28	877.00
946.53	883.00
946.77	905.00
947.01	854.00
947.26	899.00
947.50	872.00
947.75	904.00
947.99	872.00
948.23	890.00
948.48	885.00
948.72	876.00
948.97	865.00
949.21	888.00
949.45	894.00
949.70	927.00
949.94	874.00
950.18	885.00
950.43	885.00
950.67	914.00
950.92	874.00
951.16	863.00
951.40	863.00
951.65	894.00
951.89	881.00
952.13	899.00
952.38	910.00
952.62	896.00
952.87	853.00
953.11	892.00
953.35	905.00
953.60	899.00
953.84	830.00
954.08	834.00
954.33	871.00
954.57	886.00
954.82	886.00
955.06	870.00
955.30	884.00
955.55	880.00
955.79	867.00
956.03	886.00
956.28	898.00
956.52	871.00
956.76	872.00
957.01	897.00
957.25	885.00
957.50	891.00
957.74	849.00
957.98	875.00
958.23	919.00
958.47	896.00
958.71	868.00
958.96	896.00
959.20	915.00
959.44	893.00
959.69	868.00
959.93	877.00
960.17	888.00
960.42	895.00
960.66	878.00
960.90	892.00
961.15	886.00
961.39	885.00
961.64	848.00
961.88	850.00
962.12	889.00
962.37	913.00
962.61	858.00
962.85	848.00
963.10	902.00
963.34	892.00
963.58	851.00
963.83	869.00
964.07	882.00
964.31	901.00
964.56	901.00
964.80	866.00
965.04	872.00
965.29	875.00
965.53	850.00
965.77	867.00
966.02	848.00
966.26	872.00
966.50	852.00
966.74	880.00
966.99	911.00
967.23	905.00
967.47	861.00
967.72	873.00
967.96	886.00
968.20	892.00
968.45	856.00
968.69	854.00
968.93	864.00
969.18	885.00
969.42	887.00
969.66	874.00
969.91	882.00
970.15	902.00
970.39	869.00
970.64	898.00
970.88	901.00
971.12	903.00
971.36	887.00
971.61	877.00
971.85	876.00
972.09	881.00
972.34	855.00
972.58	882.00
972.82	905.00
973.07	933.00
973.31	837.00
973.55	848.00
973.79	891.00
974.04	945.00
974.28	891.00
974.52	885.00
974.77	861.00
975.01	904.00
975.25	856.00
975.50	871.00
975.74	890.00
975.98	889.00
976.22	876.00
976.47	872.00
976.71	872.00
976.95	879.00
977.20	888.00
977.44	865.00
977.68	880.00
977.92	903.00
978.17	871.00
978.41	877.00
978.65	897.00
978.90	881.00
979.14	887.00
979.38	896.00
979.62	880.00
979.87	868.00
980.11	847.00
980.35	873.00
980.59	892.00
980.84	917.00
981.08	877.00
981.32	868.00
981.57	892.00
981.81	893.00
982.05	865.00
982.29	858.00
982.54	879.00
982.78	906.00
983.02	863.00
983.26	870.00
983.51	897.00
983.75	901.00
983.99	848.00
984.23	883.00
984.48	870.00
984.72	913.00
984.96	862.00
985.20	850.00
985.45	923.00
985.69	911.00
985.93	873.00
986.17	901.00
986.42	903.00
986.66	889.00
986.90	848.00
987.14	866.00
987.39	886.00
987.63	863.00
987.87	841.00
988.11	855.00
988.36	890.00
988.60	898.00
988.84	888.00
989.08	870.00
989.33	902.00
989.57	898.00
989.81	852.00
990.05	857.00
990.30	876.00
990.54	871.00
990.78	850.00
991.02	867.00
991.27	884.00
991.51	899.00
991.75	860.00
991.99	894.00
992.23	879.00
992.48	868.00
992.72	845.00
992.96	860.00
993.20	874.00
993.45	897.00
993.69	886.00
993.93	851.00
994.17	896.00
994.41	890.00
994.66	845.00
994.90	858.00
995.14	898.00
995.38	892.00
995.63	860.00
995.87	871.00
996.11	924.00
996.35	909.00
996.59	851.00
996.84	857.00
997.08	892.00
997.32	896.00
997.56	870.00
997.80	853.00
998.05	861.00
998.29	869.00
998.53	874.00
998.77	882.00
999.01	890.00
999.26	883.00
999.50	869.00
999.74	862.00
999.98	880.00
1000.22	896.00
1000.47	857.00
1000.71	867.00
1000.95	896.00
1001.19	896.00
1001.43	861.00
1001.68	878.00
1001.92	890.00
1002.16	878.00
1002.40	854.00
1002.64	862.00
1002.89	885.00
1003.13	888.00
1003.37	868.00
1003.61	850.00
1003.85	888.00
1004.10	892.00
1004.34	881.00
1004.58	865.00
1004.82	894.00
1005.06	884.00
1005.30	848.00
1005.55	850.00
1005.79	886.00
1006.03	902.00
1006.27	879.00
1006.51	867.00
1006.76	876.00
1007.00	903.00
1007.24	864.00
1007.48	876.00
1007.72	913.00
1007.96	892.00
1008.21	853.00
1008.45	872.00
1008.69	882.00
1008.93	917.00
1009.17	869.00
1009.41	897.00
1009.66	917.00
1009.90	886.00
1010.14	861.00
1010.38	881.00
1010.62	897.00
1010.86	900.00
1011.10	862.00
1011.35	875.00
1011.59	882.00
1011.83	882.00
1012.07	851.00
1012.31	884.00
1012.55	885.00
1012.80	895.00
1013.04	881.00
1013.28	872.00
1013.52	882.00
1013.76	907.00
1014.00	861.00
1014.24	877.00
1014.49	888.00
1014.73	925.00
1014.97	900.00
1015.21	883.00
1015.45	914.00
1015.69	888.00
1015.93	860.00
1016.18	872.00
1016.42	903.00
1016.66	909.00
1016.90	870.00
1017.14	852.00
1017.38	860.00
1017.62	884.00
1017.87	868.00
1018.11	877.00
1018.35	896.00
1018.59	895.00
1018.83	841.00
1019.07	877.00
1019.31	896.00
1019.55	912.00
1019.80	868.00
1020.04	883.00
1020.28	886.00
1020.52	902.00
1020.76	855.00
1021.00	851.00
1021.24	862.00
1021.48	874.00
1021.73	861.00
1021.97	871.00
1022.21	878.00
1022.45	899.00
1022.69	885.00
1022.93	868.00
1023.17	880.00
1023.41	930.00
1023.65	891.00
1023.90	925.00
1024.14	915.00
1024.38	892.00
1024.62	864.00
1024.86	871.00
1025.10	887.00
1025.34	878.00
1025.58	858.00
1025.82	865.00
1026.07	900.00
1026.31	899.00
1026.55	857.00
1026.79	852.00
1027.03	876.00
1027.27	896.00
1027.51	844.00
1027.75	831.00
1027.99	875.00
1028.23	918.00
1028.47	880.00
1028.72	861.00
1028.96	892.00
1029.20	902.00
1029.44	894.00
1029.68	896.00
1029.92	884.00
1030.16	908.00
1030.40	845.00
1030.64	856.00
1030.88	863.00
1031.12	878.00
1031.37	842.00
1031.61	872.00
1031.85	905.00
1032.09	899.00
1032.33	872.00
1032.57	907.00
1032.81	870.00
1033.05	877.00
1033.29	872.00
1033.53	862.00
1033.77	930.00
1034.01	925.00
1034.25	885.00
1034.50	897.00
1034.74	908.00
1034.98	908.00
1035.22	879.00
1035.46	888.00
1035.70	926.00
1035.94	924.00
1036.18	875.00
1036.42	864.00
1036.66	868.00
1036.90	889.00
1037.14	863.00
1037.38	884.00
1037.62	927.00
1037.86	884.00
1038.10	868.00
1038.35	868.00
1038.59	893.00
1038.83	901.00
1039.07	887.00
1039.31	906.00
1039.55	871.00
1039.79	894.00
1040.03	853.00
1040.27	854.00
1040.51	904.00
1040.75	931.00
1040.99	888.00
1041.23	878.00
1041.47	878.00
1041.71	923.00
1041.95	879.00
1042.19	874.00
1042.43	933.00
1042.67	914.00
1042.91	882.00
1043.15	866.00
1043.39	914.00
1043.64	903.00
1043.88	871.00
1044.12	893.00
1044.36	939.00
1044.60	922.00
1044.84	893.00
1045.08	904.00
1045.32	906.00
1045.56	921.00
1045.80	886.00
1046.04	882.00
1046.28	916.00
1046.52	902.00
1046.76	859.00
1047.00	865.00
1047.24	891.00
1047.48	869.00
1047.72	867.00
1047.96	872.00
1048.20	896.00
1048.44	883.00
1048.68	856.00
1048.92	877.00
1049.16	891.00
1049.40	917.00
1049.64	878.00
1049.88	894.00
1050.12	904.00
1050.36	913.00
1050.60	868.00
1050.84	886.00
1051.08	875.00
1051.32	883.00
1051.56	881.00
1051.80	872.00
1052.04	886.00
1052.28	913.00
1052.52	861.00
1052.76	852.00
1053.00	868.00
1053.24	894.00
1053.48	858.00
1053.72	859.00
1053.96	876.00
1054.20	892.00
1054.44	876.00
1054.68	882.00
1054.92	882.00
1055.16	851.00
1055.40	846.00
1055.64	897.00
1055.88	912.00
1056.12	910.00
1056.36	835.00
1056.60	842.00
1056.84	908.00
1057.08	901.00
1057.32	855.00
1057.56	867.00
1057.80	885.00
1058.04	905.00
1058.28	859.00
1058.52	868.00
1058.76	900.00
1059.00	906.00
1059.24	845.00
1059.48	837.00
1059.72	873.00
1059.96	892.00
1060.20	898.00
1060.44	904.00
1060.68	926.00
1060.92	898.00
1061.16	857.00
1061.40	873.00
1061.64	896.00
1061.88	886.00
1062.11	864.00
1062.35	865.00
1062.59	874.00
1062.83	916.00
1063.07	867.00
1063.31	850.00
1063.55	872.00
1063.79	917.00
1064.03	884.00
1064.27	861.00
1064.51	892.00
1064.75	894.00
1064.99	868.00
1065.23	883.00
1065.47	879.00
1065.71	922.00
1065.95	884.00
1066.19	890.00
1066.43	907.00
1066.67	907.00
1066.91	885.00
1067.15	874.00
1067.38	883.00
1067.62	896.00
1067.86	860.00
1068.10	867.00
1068.34	932.00
1068.58	938.00
1068.82	884.00
1069.06	838.00
1069.30	878.00
1069.54	916.00
1069.78	888.00
1070.02	876.00
1070.26	907.00
1070.50	916.00
1070.74	877.00
1070.98	893.00
1071.21	908.00
1071.45	916.00
1071.69	867.00
1071.93	886.00
1072.17	898.00
1072.41	904.00
1072.65	903.00
1072.89	911.00
1073.13	894.00
1073.37	882.00
1073.61	858.00
1073.85	894.00
1074.09	867.00
1074.32	869.00
1074.56	882.00
1074.80	953.00
1075.04	1157.00
1075.28	988.00
1075.52	886.00
1075.76	884.00
1076.00	909.00
1076.24	916.00
1076.48	882.00
1076.72	884.00
1076.96	912.00
1077.19	915.00
1077.43	852.00
1077.67	886.00
1077.91	893.00
1078.15	866.00
1078.39	869.00
1078.63	879.00
1078.87	884.00
1079.11	896.00
1079.35	869.00
1079.58	864.00
1079.82	881.00
1080.06	893.00
1080.30	852.00
1080.54	889.00
1080.78	919.00
1081.02	883.00
1081.26	864.00
1081.50	894.00
1081.74	889.00
1081.97	906.00
1082.21	878.00
1082.45	896.00
1082.69	884.00
1082.93	868.00
1083.17	871.00
1083.41	874.00
1083.65	918.00
1083.88	944.00
1084.12	881.00
1084.36	882.00
1084.60	892.00
1084.84	902.00
1085.08	854.00
1085.32	883.00
1085.56	914.00
1085.80	897.00
1086.03	846.00
1086.27	845.00
1086.51	866.00
1086.75	909.00
1086.99	854.00
1087.23	862.00
1087.47	888.00
1087.70	876.00
1087.94	862.00
1088.18	892.00
1088.42	926.00
1088.66	901.00
1088.90	853.00
1089.14	868.00
1089.38	879.00
1089.61	916.00
1089.85	881.00
1090.09	859.00
1090.33	909.00
1090.57	921.00
1090.81	845.00
1091.05	874.00
1091.28	911.00
1091.52	911.00
1091.76	865.00
1092.00	877.00
1092.24	893.00
1092.48	922.00
1092.71	864.00
1092.95	900.00
1093.19	898.00
1093.43	880.00
1093.67	855.00
1093.91	873.00
1094.15	881.00
1094.38	893.00
1094.62	854.00
1094.86	857.00
1095.10	873.00
1095.34	883.00
1095.58	853.00
1095.81	879.00
1096.05	915.00
1096.29	914.00
1096.53	848.00
1096.77	875.00
1097.01	883.00
1097.24	922.00
1097.48	871.00
1097.72	873.00
1097.96	887.00
1098.20	897.00
1098.44	849.00
1098.67	829.00
1098.91	880.00
1099.15	909.00
1099.39	856.00
1099.63	869.00
1099.86	892.00
1100.10	877.00
1100.34	875.00
1100.58	872.00
1100.82	893.00
1101.06	890.00
1101.29	841.00
1101.53	867.00
1101.77	888.00
1102.01	881.00
1102.25	864.00
1102.48	885.00
1102.72	925.00
1102.96	902.00
1103.20	839.00
1103.44	875.00
1103.67	873.00
1103.91	888.00
1104.15	839.00
1104.39	858.00
1104.63	882.00
1104.86	875.00
1105.10	860.00
1105.34	897.00
1105.58	887.00
1105.82	872.00
1106.05	877.00
1106.29	881.00
1106.53	873.00
1106.77	922.00
1107.01	851.00
1107.24	874.00
1107.48	934.00
1107.72	909.00
1107.96	847.00
1108.20	870.00
1108.43	887.00
1108.67	873.00
1108.91	857.00
1109.15	877.00
1109.39	873.00
1109.62	883.00
1109.86	839.00
1110.10	871.00
1110.34	932.00
1110.57	950.00
1110.81	874.00
1111.05	881.00
1111.29	905.00
1111.53	934.00
1111.76	875.00
1112.00	902.00
1112.24	921.00
1112.48	885.00
1112.71	844.00
1112.95	863.00
1113.19	917.00
1113.43	884.00
1113.66	836.00
1113.90	883.00
1114.14	903.00
1114.38	903.00
1114.62	855.00
1114.85	897.00
1115.09	902.00
1115.33	949.00
1115.57	893.00
1115.80	870.00
1116.04	880.00
1116.28	886.00
1116.52	866.00
1116.75	868.00
1116.99	892.00
1117.23	913.00
1117.47	896.00
1117.70	904.00
1117.94	941.00
1118.18	887.00
1118.42	852.00
1118.65	889.00
1118.89	911.00
1119.13	883.00
1119.37	867.00
1119.60	887.00
1119.84	913.00
>>>>>End Processed Spectral Data<<<<<
