SpectraSuite Data File
++++++++++++++++++++++++++++++++++++
Date: Fri Dec 06 16:15:59 CET 2024
User: student
Dark Spectrum Present: Yes
Reference Spectrum Present: Yes
Number of Sampled Component Spectra: 1
Spectrometers: HR4C155
Integration Time (usec): 100000 (HR4C155)
Spectra Averaged: 1 (HR4C155)
Boxcar Smoothing: 0 (HR4C155)
Correct for Electrical Dark: No (HR4C155)
Strobe/Lamp Enabled: No (HR4C155)
Correct for Detector Non-linearity: No (HR4C155)
Correct for Stray Light: No (HR4C155)
Number of Pixels in Processed Spectrum: 3648
>>>>>Begin Processed Spectral Data<<<<<
195.39	688.00
195.66	688.00
195.93	688.00
196.20	670.00
196.46	703.00
196.73	833.00
197.00	843.00
197.27	848.00
197.54	860.00
197.81	866.00
198.08	865.00
198.35	882.00
198.61	896.00
198.88	872.00
199.15	874.00
199.42	884.00
199.69	901.00
199.96	888.00
200.23	885.00
200.49	904.00
200.76	921.00
201.03	888.00
201.30	857.00
201.57	917.00
201.84	936.00
202.11	897.00
202.38	927.00
202.64	930.00
202.91	939.00
203.18	882.00
203.45	937.00
203.72	1020.00
203.99	951.00
204.25	920.00
204.52	926.00
204.79	949.00
205.06	937.00
205.33	887.00
205.60	893.00
205.87	939.00
206.13	939.00
206.40	919.00
206.67	917.00
206.94	928.00
207.21	930.00
207.48	917.00
207.75	907.00
208.01	941.00
208.28	933.00
208.55	894.00
208.82	910.00
209.09	915.00
209.36	951.00
209.62	923.00
209.89	931.00
210.16	937.00
210.43	968.00
210.70	895.00
210.97	895.00
211.23	925.00
211.50	948.00
211.77	914.00
212.04	929.00
212.31	936.00
212.58	967.00
212.84	905.00
213.11	921.00
213.38	896.00
213.65	915.00
213.92	893.00
214.18	913.00
214.45	971.00
214.72	949.00
214.99	897.00
215.26	920.00
215.53	909.00
215.79	942.00
216.06	931.00
216.33	923.00
216.60	913.00
216.87	947.00
217.13	880.00
217.40	899.00
217.67	939.00
217.94	976.00
218.21	916.00
218.48	962.00
218.74	979.00
219.01	947.00
219.28	882.00
219.55	895.00
219.82	936.00
220.08	950.00
220.35	904.00
220.62	892.00
220.89	964.00
221.16	999.00
221.42	933.00
221.69	919.00
221.96	939.00
222.23	944.00
222.50	946.00
222.76	962.00
223.03	947.00
223.30	926.00
223.57	887.00
223.84	876.00
224.10	911.00
224.37	941.00
224.64	880.00
224.91	911.00
225.18	943.00
225.44	952.00
225.71	906.00
225.98	922.00
226.25	949.00
226.51	957.00
226.78	909.00
227.05	909.00
227.32	930.00
227.59	935.00
227.85	937.00
228.12	920.00
228.39	948.00
228.66	951.00
228.92	960.00
229.19	932.00
229.46	942.00
229.73	909.00
230.00	891.00
230.26	930.00
230.53	964.00
230.80	923.00
231.07	856.00
231.33	894.00
231.60	951.00
231.87	964.00
232.14	901.00
232.41	958.00
232.67	957.00
232.94	957.00
233.21	892.00
233.48	911.00
233.74	916.00
234.01	918.00
234.28	899.00
234.55	908.00
234.81	905.00
235.08	953.00
235.35	906.00
235.62	898.00
235.88	905.00
236.15	942.00
236.42	911.00
236.69	919.00
236.95	972.00
237.22	940.00
237.49	905.00
237.76	892.00
238.02	941.00
238.29	963.00
238.56	913.00
238.83	898.00
239.09	913.00
239.36	964.00
239.63	915.00
239.90	919.00
240.16	957.00
240.43	986.00
240.70	902.00
240.97	922.00
241.23	935.00
241.50	944.00
241.77	911.00
242.04	903.00
242.30	895.00
242.57	923.00
242.84	885.00
243.11	900.00
243.37	900.00
243.64	965.00
243.91	912.00
244.18	904.00
244.44	877.00
244.71	902.00
244.98	901.00
245.24	909.00
245.51	936.00
245.78	947.00
246.05	889.00
246.31	905.00
246.58	939.00
246.85	931.00
247.12	913.00
247.38	938.00
247.65	945.00
247.92	954.00
248.18	903.00
248.45	917.00
248.72	923.00
248.99	944.00
249.25	907.00
249.52	918.00
249.79	944.00
250.05	938.00
250.32	904.00
250.59	889.00
250.86	913.00
251.12	919.00
251.39	891.00
251.66	922.00
251.92	929.00
252.19	949.00
252.46	905.00
252.73	936.00
252.99	947.00
253.26	968.00
253.53	894.00
253.79	921.00
254.06	926.00
254.33	912.00
254.60	883.00
254.86	903.00
255.13	941.00
255.40	963.00
255.66	899.00
255.93	930.00
256.20	949.00
256.46	965.00
256.73	901.00
257.00	920.00
257.26	938.00
257.53	941.00
257.80	931.00
258.07	928.00
258.33	961.00
258.60	940.00
258.87	878.00
259.13	910.00
259.40	915.00
259.67	945.00
259.93	921.00
260.20	925.00
260.47	941.00
260.73	902.00
261.00	895.00
261.27	919.00
261.53	934.00
261.80	926.00
262.07	882.00
262.34	919.00
262.60	887.00
262.87	925.00
263.14	893.00
263.40	939.00
263.67	919.00
263.94	914.00
264.20	888.00
264.47	881.00
264.74	907.00
265.00	923.00
265.27	892.00
265.54	897.00
265.80	929.00
266.07	935.00
266.34	877.00
266.60	897.00
266.87	930.00
267.14	948.00
267.40	898.00
267.67	893.00
267.94	937.00
268.20	932.00
268.47	892.00
268.74	907.00
269.00	928.00
269.27	900.00
269.54	873.00
269.80	886.00
270.07	946.00
270.33	913.00
270.60	899.00
270.87	926.00
271.13	907.00
271.40	929.00
271.67	873.00
271.93	875.00
272.20	931.00
272.47	909.00
272.73	862.00
273.00	912.00
273.27	923.00
273.53	958.00
273.80	895.00
274.07	870.00
274.33	921.00
274.60	943.00
274.86	905.00
275.13	899.00
275.40	904.00
275.66	944.00
275.93	899.00
276.20	894.00
276.46	917.00
276.73	900.00
277.00	892.00
277.26	906.00
277.53	948.00
277.79	938.00
278.06	883.00
278.33	935.00
278.59	925.00
278.86	907.00
279.13	909.00
279.39	924.00
279.66	939.00
279.93	954.00
280.19	901.00
280.46	912.00
280.72	903.00
280.99	934.00
281.26	897.00
281.52	894.00
281.79	933.00
282.05	936.00
282.32	880.00
282.59	900.00
282.85	940.00
283.12	922.00
283.39	901.00
283.65	921.00
283.92	913.00
284.18	945.00
284.45	918.00
284.72	925.00
284.98	908.00
285.25	919.00
285.51	929.00
285.78	916.00
286.05	900.00
286.31	936.00
286.58	877.00
286.84	884.00
287.11	914.00
287.38	941.00
287.64	913.00
287.91	884.00
288.17	927.00
288.44	925.00
288.71	865.00
288.97	902.00
289.24	945.00
289.50	912.00
289.77	901.00
290.04	890.00
290.30	909.00
290.57	947.00
290.83	878.00
291.10	889.00
291.37	937.00
291.63	925.00
291.90	937.00
292.16	917.00
292.43	934.00
292.70	909.00
292.96	862.00
293.23	887.00
293.49	890.00
293.76	919.00
294.02	898.00
294.29	902.00
294.56	922.00
294.82	935.00
295.09	895.00
295.35	880.00
295.62	933.00
295.89	939.00
296.15	886.00
296.42	877.00
296.68	913.00
296.95	924.00
297.21	910.00
297.48	903.00
297.75	923.00
298.01	955.00
298.28	898.00
298.54	919.00
298.81	926.00
299.07	938.00
299.34	867.00
299.61	897.00
299.87	943.00
300.14	919.00
300.40	916.00
300.67	913.00
300.93	937.00
301.20	967.00
301.46	877.00
301.73	898.00
302.00	926.00
302.26	908.00
302.53	912.00
302.79	901.00
303.06	935.00
303.32	978.00
303.59	874.00
303.85	883.00
304.12	913.00
304.39	925.00
304.65	896.00
304.92	902.00
305.18	926.00
305.45	945.00
305.71	915.00
305.98	931.00
306.24	925.00
306.51	915.00
306.77	908.00
307.04	893.00
307.31	928.00
307.57	943.00
307.84	885.00
308.10	911.00
308.37	904.00
308.63	922.00
308.90	885.00
309.16	886.00
309.43	924.00
309.69	916.00
309.96	899.00
310.22	894.00
310.49	918.00
310.76	921.00
311.02	865.00
311.29	898.00
311.55	917.00
311.82	922.00
312.08	911.00
312.35	903.00
312.61	942.00
312.88	927.00
313.14	891.00
313.41	886.00
313.67	898.00
313.94	930.00
314.20	908.00
314.47	924.00
314.73	894.00
315.00	909.00
315.26	872.00
315.53	915.00
315.79	935.00
316.06	933.00
316.32	893.00
316.59	942.00
316.85	924.00
317.12	926.00
317.39	890.00
317.65	909.00
317.92	918.00
318.18	927.00
318.45	890.00
318.71	946.00
318.98	953.00
319.24	923.00
319.51	906.00
319.77	909.00
320.04	924.00
320.30	926.00
320.57	900.00
320.83	898.00
321.10	890.00
321.36	892.00
321.63	865.00
321.89	886.00
322.16	945.00
322.42	920.00
322.69	878.00
322.95	877.00
323.22	931.00
323.48	946.00
323.75	883.00
324.01	913.00
324.28	921.00
324.54	932.00
324.80	896.00
325.07	916.00
325.33	930.00
325.60	928.00
325.86	883.00
326.13	892.00
326.39	905.00
326.66	903.00
326.92	846.00
327.19	875.00
327.45	946.00
327.72	960.00
327.98	895.00
328.25	900.00
328.51	931.00
328.78	931.00
329.04	887.00
329.31	916.00
329.57	908.00
329.84	911.00
330.10	905.00
330.37	903.00
330.63	946.00
330.89	966.00
331.16	905.00
331.42	921.00
331.69	950.00
331.95	938.00
332.22	916.00
332.48	941.00
332.75	920.00
333.01	893.00
333.28	886.00
333.54	899.00
333.81	929.00
334.07	949.00
334.34	909.00
334.60	921.00
334.86	966.00
335.13	955.00
335.39	905.00
335.66	901.00
335.92	935.00
336.19	920.00
336.45	866.00
336.72	888.00
336.98	913.00
337.24	923.00
337.51	878.00
337.77	895.00
338.04	911.00
338.30	916.00
338.57	884.00
338.83	918.00
339.10	929.00
339.36	934.00
339.63	900.00
339.89	878.00
340.15	901.00
340.42	934.00
340.68	924.00
340.95	915.00
341.21	920.00
341.48	926.00
341.74	869.00
342.00	887.00
342.27	923.00
342.53	937.00
342.80	877.00
343.06	885.00
343.33	908.00
343.59	924.00
343.85	894.00
344.12	918.00
344.38	974.00
344.65	951.00
344.91	901.00
345.18	902.00
345.44	901.00
345.70	898.00
345.97	865.00
346.23	882.00
346.50	924.00
346.76	921.00
347.03	889.00
347.29	909.00
347.55	891.00
347.82	919.00
348.08	871.00
348.35	880.00
348.61	973.00
348.87	947.00
349.14	888.00
349.40	874.00
349.67	943.00
349.93	922.00
350.20	897.00
350.46	914.00
350.72	941.00
350.99	928.00
351.25	903.00
351.52	905.00
351.78	900.00
352.04	918.00
352.31	893.00
352.57	901.00
352.84	902.00
353.10	926.00
353.36	911.00
353.63	904.00
353.89	911.00
354.16	928.00
354.42	902.00
354.68	916.00
354.95	948.00
355.21	921.00
355.48	876.00
355.74	919.00
356.00	957.00
356.27	964.00
356.53	895.00
356.80	888.00
357.06	929.00
357.32	934.00
357.59	926.00
357.85	932.00
358.11	951.00
358.38	921.00
358.64	906.00
358.91	919.00
359.17	925.00
359.43	937.00
359.70	922.00
359.96	914.00
360.22	931.00
360.49	908.00
360.75	900.00
361.02	880.00
361.28	906.00
361.54	911.00
361.81	875.00
362.07	902.00
362.33	883.00
362.60	900.00
362.86	888.00
363.13	919.00
363.39	945.00
363.65	930.00
363.92	843.00
364.18	873.00
364.44	915.00
364.71	937.00
364.97	893.00
365.24	902.00
365.50	941.00
365.76	959.00
366.03	896.00
366.29	913.00
366.55	935.00
366.82	906.00
367.08	872.00
367.34	896.00
367.61	914.00
367.87	922.00
368.13	910.00
368.40	902.00
368.66	950.00
368.93	942.00
369.19	866.00
369.45	884.00
369.72	920.00
369.98	903.00
370.24	875.00
370.51	887.00
370.77	919.00
371.03	926.00
371.30	894.00
371.56	925.00
371.82	935.00
372.09	925.00
372.35	903.00
372.61	916.00
372.88	916.00
373.14	917.00
373.40	886.00
373.67	889.00
373.93	924.00
374.19	945.00
374.46	882.00
374.72	867.00
374.98	917.00
375.25	923.00
375.51	902.00
375.77	925.00
376.04	947.00
376.30	937.00
376.56	891.00
376.83	893.00
377.09	922.00
377.35	938.00
377.62	903.00
377.88	905.00
378.14	903.00
378.41	927.00
378.67	892.00
378.93	904.00
379.20	919.00
379.46	903.00
379.72	891.00
379.99	881.00
380.25	909.00
380.51	898.00
380.77	892.00
381.04	903.00
381.30	921.00
381.56	942.00
381.83	921.00
382.09	896.00
382.35	890.00
382.62	933.00
382.88	922.00
383.14	918.00
383.41	905.00
383.67	908.00
383.93	915.00
384.20	900.00
384.46	914.00
384.72	934.00
384.98	890.00
385.25	934.00
385.51	929.00
385.77	934.00
386.04	877.00
386.30	865.00
386.56	926.00
386.82	981.00
387.09	904.00
387.35	925.00
387.61	1006.00
387.88	935.00
388.14	910.00
388.40	895.00
388.67	903.00
388.93	911.00
389.19	902.00
389.45	899.00
389.72	902.00
389.98	931.00
390.24	905.00
390.51	884.00
390.77	915.00
391.03	946.00
391.29	898.00
391.56	900.00
391.82	909.00
392.08	953.00
392.35	919.00
392.61	894.00
392.87	928.00
393.13	935.00
393.40	884.00
393.66	887.00
393.92	931.00
394.18	932.00
394.45	881.00
394.71	879.00
394.97	903.00
395.24	888.00
395.50	889.00
395.76	938.00
396.02	940.00
396.29	921.00
396.55	872.00
396.81	833.00
397.07	897.00
397.34	890.00
397.60	862.00
397.86	862.00
398.12	899.00
398.39	940.00
398.65	896.00
398.91	897.00
399.17	915.00
399.44	871.00
399.70	835.00
399.96	875.00
400.22	897.00
400.49	948.00
400.75	905.00
401.01	893.00
401.27	892.00
401.54	920.00
401.80	883.00
402.06	871.00
402.32	918.00
402.59	904.00
402.85	881.00
403.11	903.00
403.37	882.00
403.64	929.00
403.90	882.00
404.16	898.00
404.42	898.00
404.69	890.00
404.95	876.00
405.21	874.00
405.47	902.00
405.74	921.00
406.00	881.00
406.26	876.00
406.52	908.00
406.79	934.00
407.05	883.00
407.31	899.00
407.57	891.00
407.83	905.00
408.10	854.00
408.36	878.00
408.62	907.00
408.88	912.00
409.15	895.00
409.41	865.00
409.67	884.00
409.93	920.00
410.20	910.00
410.46	898.00
410.72	881.00
410.98	913.00
411.24	886.00
411.51	897.00
411.77	892.00
412.03	903.00
412.29	902.00
412.55	925.00
412.82	906.00
413.08	921.00
413.34	918.00
413.60	915.00
413.87	910.00
414.13	905.00
414.39	867.00
414.65	893.00
414.91	912.00
415.18	882.00
415.44	858.00
415.70	872.00
415.96	897.00
416.22	911.00
416.49	885.00
416.75	882.00
417.01	907.00
417.27	930.00
417.53	908.00
417.80	912.00
418.06	913.00
418.32	917.00
418.58	888.00
418.84	867.00
419.11	902.00
419.37	925.00
419.63	880.00
419.89	878.00
420.15	912.00
420.42	912.00
420.68	891.00
420.94	896.00
421.20	898.00
421.46	915.00
421.72	911.00
421.99	913.00
422.25	918.00
422.51	930.00
422.77	898.00
423.03	905.00
423.30	896.00
423.56	922.00
423.82	918.00
424.08	910.00
424.34	926.00
424.60	901.00
424.87	893.00
425.13	864.00
425.39	898.00
425.65	895.00
425.91	867.00
426.18	905.00
426.44	915.00
426.70	898.00
426.96	854.00
427.22	876.00
427.48	891.00
427.75	894.00
428.01	854.00
428.27	877.00
428.53	927.00
428.79	893.00
429.05	882.00
429.32	898.00
429.58	952.00
429.84	903.00
430.10	907.00
430.36	911.00
430.62	940.00
430.88	923.00
431.15	899.00
431.41	919.00
431.67	914.00
431.93	901.00
432.19	868.00
432.45	872.00
432.72	913.00
432.98	915.00
433.24	925.00
433.50	982.00
433.76	911.00
434.02	898.00
434.28	876.00
434.55	882.00
434.81	907.00
435.07	935.00
435.33	881.00
435.59	862.00
435.85	895.00
436.11	924.00
436.38	869.00
436.64	881.00
436.90	900.00
437.16	900.00
437.42	871.00
437.68	899.00
437.94	919.00
438.21	926.00
438.47	910.00
438.73	902.00
438.99	909.00
439.25	913.00
439.51	878.00
439.77	898.00
440.03	901.00
440.30	921.00
440.56	884.00
440.82	923.00
441.08	940.00
441.34	918.00
441.60	877.00
441.86	904.00
442.12	916.00
442.39	910.00
442.65	894.00
442.91	873.00
443.17	901.00
443.43	919.00
443.69	900.00
443.95	859.00
444.21	882.00
444.47	918.00
444.74	886.00
445.00	890.00
445.26	883.00
445.52	924.00
445.78	876.00
446.04	882.00
446.30	944.00
446.56	936.00
446.82	880.00
447.09	883.00
447.35	906.00
447.61	915.00
447.87	897.00
448.13	874.00
448.39	948.00
448.65	940.00
448.91	867.00
449.17	864.00
449.43	898.00
449.70	922.00
449.96	860.00
450.22	867.00
450.48	912.00
450.74	943.00
451.00	894.00
451.26	870.00
451.52	899.00
451.78	892.00
452.04	882.00
452.31	912.00
452.57	919.00
452.83	902.00
453.09	868.00
453.35	885.00
453.61	908.00
453.87	905.00
454.13	909.00
454.39	930.00
454.65	968.00
454.91	944.00
455.17	879.00
455.44	897.00
455.70	911.00
455.96	919.00
456.22	869.00
456.48	903.00
456.74	918.00
457.00	869.00
457.26	840.00
457.52	884.00
457.78	915.00
458.04	910.00
458.30	860.00
458.56	885.00
458.82	888.00
459.09	883.00
459.35	826.00
459.61	862.00
459.87	923.00
460.13	926.00
460.39	885.00
460.65	883.00
460.91	925.00
461.17	900.00
461.43	867.00
461.69	867.00
461.95	904.00
462.21	905.00
462.47	904.00
462.73	931.00
462.99	940.00
463.26	926.00
463.52	882.00
463.78	888.00
464.04	898.00
464.30	901.00
464.56	854.00
464.82	888.00
465.08	927.00
465.34	951.00
465.60	909.00
465.86	894.00
466.12	888.00
466.38	902.00
466.64	868.00
466.90	883.00
467.16	891.00
467.42	913.00
467.68	861.00
467.94	885.00
468.20	933.00
468.46	923.00
468.72	883.00
468.98	907.00
469.25	911.00
469.51	864.00
469.77	901.00
470.03	902.00
470.29	920.00
470.55	925.00
470.81	910.00
471.07	893.00
471.33	915.00
471.59	917.00
471.85	889.00
472.11	899.00
472.37	908.00
472.63	892.00
472.89	903.00
473.15	886.00
473.41	914.00
473.67	899.00
473.93	871.00
474.19	872.00
474.45	880.00
474.71	900.00
474.97	867.00
475.23	863.00
475.49	889.00
475.75	904.00
476.01	894.00
476.27	916.00
476.53	924.00
476.79	917.00
477.05	875.00
477.31	898.00
477.57	924.00
477.83	909.00
478.09	857.00
478.35	887.00
478.61	922.00
478.87	914.00
479.13	875.00
479.39	891.00
479.65	932.00
479.91	923.00
480.17	905.00
480.43	898.00
480.69	894.00
480.95	918.00
481.21	886.00
481.47	893.00
481.73	891.00
481.99	890.00
482.25	851.00
482.51	858.00
482.77	933.00
483.03	919.00
483.29	893.00
483.55	898.00
483.81	918.00
484.07	924.00
484.33	870.00
484.59	887.00
484.85	923.00
485.11	916.00
485.37	885.00
485.63	882.00
485.89	882.00
486.15	884.00
486.41	862.00
486.67	881.00
486.93	903.00
487.19	883.00
487.45	861.00
487.71	859.00
487.97	910.00
488.23	916.00
488.49	865.00
488.75	869.00
489.01	916.00
489.27	943.00
489.53	881.00
489.79	868.00
490.05	893.00
490.31	927.00
490.57	919.00
490.83	943.00
491.08	903.00
491.34	883.00
491.60	869.00
491.86	898.00
492.12	926.00
492.38	932.00
492.64	870.00
492.90	872.00
493.16	910.00
493.42	873.00
493.68	863.00
493.94	903.00
494.20	900.00
494.46	918.00
494.72	874.00
494.98	882.00
495.24	896.00
495.50	893.00
495.76	901.00
496.02	905.00
496.28	921.00
496.54	917.00
496.80	885.00
497.05	857.00
497.31	898.00
497.57	921.00
497.83	889.00
498.09	901.00
498.35	938.00
498.61	911.00
498.87	896.00
499.13	887.00
499.39	913.00
499.65	889.00
499.91	893.00
500.17	876.00
500.43	968.00
500.69	1000.00
500.95	886.00
501.20	908.00
501.46	924.00
501.72	930.00
501.98	926.00
502.24	907.00
502.50	918.00
502.76	901.00
503.02	885.00
503.28	910.00
503.54	950.00
503.80	967.00
504.06	922.00
504.32	918.00
504.58	933.00
504.83	900.00
505.09	871.00
505.35	880.00
505.61	874.00
505.87	905.00
506.13	890.00
506.39	876.00
506.65	932.00
506.91	970.00
507.17	887.00
507.43	873.00
507.68	899.00
507.94	923.00
508.20	863.00
508.46	865.00
508.72	920.00
508.98	940.00
509.24	869.00
509.50	897.00
509.76	907.00
510.02	908.00
510.28	870.00
510.53	875.00
510.79	912.00
511.05	917.00
511.31	878.00
511.57	885.00
511.83	904.00
512.09	924.00
512.35	877.00
512.61	890.00
512.87	895.00
513.12	914.00
513.38	865.00
513.64	890.00
513.90	913.00
514.16	952.00
514.42	907.00
514.68	899.00
514.94	923.00
515.20	928.00
515.45	882.00
515.71	878.00
515.97	883.00
516.23	918.00
516.49	879.00
516.75	890.00
517.01	902.00
517.27	883.00
517.53	868.00
517.78	873.00
518.04	902.00
518.30	890.00
518.56	874.00
518.82	908.00
519.08	943.00
519.34	884.00
519.60	881.00
519.85	903.00
520.11	906.00
520.37	893.00
520.63	882.00
520.89	906.00
521.15	902.00
521.41	905.00
521.66	866.00
521.92	877.00
522.18	932.00
522.44	941.00
522.70	890.00
522.96	880.00
523.22	910.00
523.48	902.00
523.73	903.00
523.99	885.00
524.25	939.00
524.51	912.00
524.77	862.00
525.03	875.00
525.29	907.00
525.54	922.00
525.80	885.00
526.06	881.00
526.32	879.00
526.58	899.00
526.84	883.00
527.09	886.00
527.35	876.00
527.61	885.00
527.87	874.00
528.13	897.00
528.39	891.00
528.65	892.00
528.90	855.00
529.16	881.00
529.42	871.00
529.68	889.00
529.94	865.00
530.20	872.00
530.45	885.00
530.71	908.00
530.97	858.00
531.23	882.00
531.49	916.00
531.75	904.00
532.00	885.00
532.26	877.00
532.52	907.00
532.78	902.00
533.04	884.00
533.30	883.00
533.55	900.00
533.81	908.00
534.07	864.00
534.33	884.00
534.59	904.00
534.85	903.00
535.10	863.00
535.36	861.00
535.62	910.00
535.88	883.00
536.14	862.00
536.39	882.00
536.65	929.00
536.91	941.00
537.17	880.00
537.43	875.00
537.69	925.00
537.94	894.00
538.20	864.00
538.46	881.00
538.72	898.00
538.98	904.00
539.23	873.00
539.49	846.00
539.75	914.00
540.01	901.00
540.27	873.00
540.52	904.00
540.78	903.00
541.04	923.00
541.30	875.00
541.56	876.00
541.81	945.00
542.07	981.00
542.33	899.00
542.59	895.00
542.85	910.00
543.10	914.00
543.36	870.00
543.62	916.00
543.88	889.00
544.14	896.00
544.39	874.00
544.65	888.00
544.91	936.00
545.17	908.00
545.43	878.00
545.68	862.00
545.94	901.00
546.20	917.00
546.46	883.00
546.71	873.00
546.97	891.00
547.23	890.00
547.49	856.00
547.75	881.00
548.00	909.00
548.26	918.00
548.52	866.00
548.78	853.00
549.03	895.00
549.29	910.00
549.55	846.00
549.81	888.00
550.07	921.00
550.32	917.00
550.58	868.00
550.84	904.00
551.10	902.00
551.35	886.00
551.61	864.00
551.87	896.00
552.13	907.00
552.39	878.00
552.64	859.00
552.90	895.00
553.16	923.00
553.42	919.00
553.67	870.00
553.93	866.00
554.19	910.00
554.45	938.00
554.70	873.00
554.96	864.00
555.22	902.00
555.48	913.00
555.73	870.00
555.99	880.00
556.25	913.00
556.51	918.00
556.76	877.00
557.02	902.00
557.28	917.00
557.54	898.00
557.79	876.00
558.05	902.00
558.31	880.00
558.57	910.00
558.82	862.00
559.08	845.00
559.34	859.00
559.60	908.00
559.85	907.00
560.11	889.00
560.37	883.00
560.63	885.00
560.88	860.00
561.14	864.00
561.40	933.00
561.66	892.00
561.91	864.00
562.17	883.00
562.43	915.00
562.68	927.00
562.94	889.00
563.20	912.00
563.46	934.00
563.71	943.00
563.97	861.00
564.23	883.00
564.49	923.00
564.74	916.00
565.00	877.00
565.26	877.00
565.51	897.00
565.77	890.00
566.03	861.00
566.29	888.00
566.54	886.00
566.80	904.00
567.06	866.00
567.31	897.00
567.57	924.00
567.83	892.00
568.09	873.00
568.34	878.00
568.60	890.00
568.86	930.00
569.11	885.00
569.37	876.00
569.63	911.00
569.89	912.00
570.14	855.00
570.40	878.00
570.66	892.00
570.91	895.00
571.17	872.00
571.43	888.00
571.69	936.00
571.94	933.00
572.20	864.00
572.46	874.00
572.71	917.00
572.97	907.00
573.23	860.00
573.48	869.00
573.74	893.00
574.00	918.00
574.26	863.00
574.51	867.00
574.77	918.00
575.03	912.00
575.28	873.00
575.54	866.00
575.80	873.00
576.05	906.00
576.31	851.00
576.57	842.00
576.82	890.00
577.08	922.00
577.34	887.00
577.59	890.00
577.85	929.00
578.11	885.00
578.37	860.00
578.62	877.00
578.88	914.00
579.14	922.00
579.39	882.00
579.65	892.00
579.91	895.00
580.16	898.00
580.42	878.00
580.68	869.00
580.93	902.00
581.19	884.00
581.45	867.00
581.70	883.00
581.96	902.00
582.22	942.00
582.47	901.00
582.73	901.00
582.99	907.00
583.24	902.00
583.50	863.00
583.76	878.00
584.01	893.00
584.27	904.00
584.53	885.00
584.78	887.00
585.04	880.00
585.30	902.00
585.55	876.00
585.81	881.00
586.07	914.00
586.32	908.00
586.58	876.00
586.83	887.00
587.09	909.00
587.35	907.00
587.60	864.00
587.86	870.00
588.12	894.00
588.37	893.00
588.63	866.00
588.89	892.00
589.14	917.00
589.40	922.00
589.66	874.00
589.91	893.00
590.17	916.00
590.43	862.00
590.68	848.00
590.94	878.00
591.19	907.00
591.45	886.00
591.71	856.00
591.96	868.00
592.22	909.00
592.48	920.00
592.73	867.00
592.99	881.00
593.25	886.00
593.50	899.00
593.76	862.00
594.01	875.00
594.27	915.00
594.53	910.00
594.78	863.00
595.04	878.00
595.30	901.00
595.55	906.00
595.81	855.00
596.06	886.00
596.32	909.00
596.58	913.00
596.83	882.00
597.09	903.00
597.35	922.00
597.60	901.00
597.86	872.00
598.11	889.00
598.37	918.00
598.63	906.00
598.88	870.00
599.14	868.00
599.39	921.00
599.65	911.00
599.91	843.00
600.16	866.00
600.42	899.00
600.67	924.00
600.93	876.00
601.19	894.00
601.44	940.00
601.70	903.00
601.95	868.00
602.21	880.00
602.47	889.00
602.72	888.00
602.98	879.00
603.23	882.00
603.49	904.00
603.75	899.00
604.00	885.00
604.26	892.00
604.51	894.00
604.77	909.00
605.03	854.00
605.28	880.00
605.54	936.00
605.79	929.00
606.05	848.00
606.31	868.00
606.56	922.00
606.82	930.00
607.07	887.00
607.33	901.00
607.59	919.00
607.84	893.00
608.10	859.00
608.35	870.00
608.61	914.00
608.86	922.00
609.12	891.00
609.38	921.00
609.63	933.00
609.89	896.00
610.14	836.00
610.40	877.00
610.65	904.00
610.91	909.00
611.17	853.00
611.42	872.00
611.68	924.00
611.93	930.00
612.19	902.00
612.44	912.00
612.70	914.00
612.96	881.00
613.21	859.00
613.47	874.00
613.72	903.00
613.98	923.00
614.23	873.00
614.49	887.00
614.75	918.00
615.00	897.00
615.26	883.00
615.51	878.00
615.77	893.00
616.02	915.00
616.28	884.00
616.53	884.00
616.79	898.00
617.05	888.00
617.30	865.00
617.56	884.00
617.81	917.00
618.07	906.00
618.32	875.00
618.58	902.00
618.83	914.00
619.09	921.00
619.34	882.00
619.60	881.00
619.86	920.00
620.11	935.00
620.37	893.00
620.62	894.00
620.88	922.00
621.13	931.00
621.39	896.00
621.64	916.00
621.90	928.00
622.15	895.00
622.41	874.00
622.66	888.00
622.92	913.00
623.18	930.00
623.43	885.00
623.69	897.00
623.94	926.00
624.20	929.00
624.45	899.00
624.71	934.00
624.96	922.00
625.22	957.00
625.47	900.00
625.73	900.00
625.98	926.00
626.24	918.00
626.49	903.00
626.75	910.00
627.00	951.00
627.26	941.00
627.51	918.00
627.77	941.00
628.02	947.00
628.28	969.00
628.53	928.00
628.79	967.00
629.05	983.00
629.30	956.00
629.56	948.00
629.81	968.00
630.07	955.00
630.32	965.00
630.58	968.00
630.83	974.00
631.09	994.00
631.34	988.00
631.60	951.00
631.85	951.00
632.11	985.00
632.36	1000.00
632.62	957.00
632.87	999.00
633.13	1007.00
633.38	1009.00
633.64	1003.00
633.89	1023.00
634.15	1046.00
634.40	1064.00
634.66	1023.00
634.91	1004.00
635.17	1037.00
635.42	1059.00
635.68	1052.00
635.93	1054.00
636.18	1081.00
636.44	1099.00
636.69	1076.00
636.95	1043.00
637.20	1069.00
637.46	1090.00
637.71	1073.00
637.97	1063.00
638.22	1092.00
638.48	1084.00
638.73	1049.00
638.99	1031.00
639.24	1090.00
639.50	1061.00
639.75	1021.00
640.01	1050.00
640.26	1083.00
640.52	1100.00
640.77	1027.00
641.03	1074.00
641.28	1116.00
641.54	1104.00
641.79	1049.00
642.04	1064.00
642.30	1037.00
642.55	1049.00
642.81	1026.00
643.06	1027.00
643.32	1063.00
643.57	1051.00
643.83	956.00
644.08	956.00
644.34	993.00
644.59	1029.00
644.85	990.00
645.10	974.00
645.35	983.00
645.61	985.00
645.86	956.00
646.12	970.00
646.37	996.00
646.63	982.00
646.88	923.00
647.14	933.00
647.39	953.00
647.65	980.00
647.90	905.00
648.15	934.00
648.41	958.00
648.66	971.00
648.92	914.00
649.17	918.00
649.43	931.00
649.68	931.00
649.94	909.00
650.19	900.00
650.44	920.00
650.70	913.00
650.95	860.00
651.21	883.00
651.46	924.00
651.72	933.00
651.97	901.00
652.23	893.00
652.48	918.00
652.73	911.00
652.99	891.00
653.24	915.00
653.50	895.00
653.75	882.00
654.01	886.00
654.26	895.00
654.51	899.00
654.77	914.00
655.02	897.00
655.28	879.00
655.53	900.00
655.79	910.00
656.04	893.00
656.29	905.00
656.55	890.00
656.80	923.00
657.06	858.00
657.31	876.00
657.56	903.00
657.82	887.00
658.07	876.00
658.33	877.00
658.58	902.00
658.84	918.00
659.09	876.00
659.34	885.00
659.60	899.00
659.85	893.00
660.11	863.00
660.36	882.00
660.61	898.00
660.87	857.00
661.12	852.00
661.38	881.00
661.63	887.00
661.88	902.00
662.14	885.00
662.39	867.00
662.65	927.00
662.90	938.00
663.15	863.00
663.41	883.00
663.66	918.00
663.92	945.00
664.17	887.00
664.42	893.00
664.68	898.00
664.93	897.00
665.19	864.00
665.44	860.00
665.69	866.00
665.95	908.00
666.20	860.00
666.45	897.00
666.71	912.00
666.96	901.00
667.22	848.00
667.47	878.00
667.72	883.00
667.98	901.00
668.23	861.00
668.49	911.00
668.74	915.00
668.99	909.00
669.25	877.00
669.50	866.00
669.75	884.00
670.01	901.00
670.26	850.00
670.52	872.00
670.77	915.00
671.02	901.00
671.28	861.00
671.53	871.00
671.78	906.00
672.04	916.00
672.29	879.00
672.54	875.00
672.80	892.00
673.05	902.00
673.31	874.00
673.56	925.00
673.81	931.00
674.07	907.00
674.32	908.00
674.57	892.00
674.83	900.00
675.08	903.00
675.33	876.00
675.59	888.00
675.84	902.00
676.09	881.00
676.35	888.00
676.60	890.00
676.86	884.00
677.11	930.00
677.36	879.00
677.62	882.00
677.87	921.00
678.12	927.00
678.38	867.00
678.63	877.00
678.88	905.00
679.14	921.00
679.39	849.00
679.64	885.00
679.90	881.00
680.15	917.00
680.40	901.00
680.66	857.00
680.91	893.00
681.16	911.00
681.42	886.00
681.67	859.00
681.92	877.00
682.18	921.00
682.43	862.00
682.68	862.00
682.94	892.00
683.19	881.00
683.44	860.00
683.70	884.00
683.95	895.00
684.20	896.00
684.46	871.00
684.71	897.00
684.96	893.00
685.22	908.00
685.47	889.00
685.72	893.00
685.98	923.00
686.23	873.00
686.48	860.00
686.74	903.00
686.99	919.00
687.24	903.00
687.50	879.00
687.75	870.00
688.00	890.00
688.25	899.00
688.51	892.00
688.76	913.00
689.01	898.00
689.27	900.00
689.52	845.00
689.77	871.00
690.03	874.00
690.28	893.00
690.53	868.00
690.79	897.00
691.04	913.00
691.29	906.00
691.54	842.00
691.80	880.00
692.05	912.00
692.30	918.00
692.56	881.00
692.81	892.00
693.06	878.00
693.32	874.00
693.57	876.00
693.82	913.00
694.07	935.00
694.33	908.00
694.58	865.00
694.83	901.00
695.09	886.00
695.34	918.00
695.59	899.00
695.84	891.00
696.10	925.00
696.35	925.00
696.60	855.00
696.86	869.00
697.11	899.00
697.36	901.00
697.61	858.00
697.87	883.00
698.12	908.00
698.37	903.00
698.63	890.00
698.88	881.00
699.13	889.00
699.38	886.00
699.64	850.00
699.89	875.00
700.14	882.00
700.39	893.00
700.65	884.00
700.90	889.00
701.15	880.00
701.40	903.00
701.66	873.00
701.91	887.00
702.16	897.00
702.42	888.00
702.67	856.00
702.92	869.00
703.17	885.00
703.43	890.00
703.68	869.00
703.93	906.00
704.18	927.00
704.44	890.00
704.69	857.00
704.94	889.00
705.19	899.00
705.45	927.00
705.70	897.00
705.95	876.00
706.20	880.00
706.46	905.00
706.71	879.00
706.96	876.00
707.21	893.00
707.47	903.00
707.72	881.00
707.97	899.00
708.22	901.00
708.48	915.00
708.73	865.00
708.98	858.00
709.23	884.00
709.49	898.00
709.74	870.00
709.99	880.00
710.24	892.00
710.50	900.00
710.75	901.00
711.00	910.00
711.25	911.00
711.50	899.00
711.76	863.00
712.01	876.00
712.26	870.00
712.51	894.00
712.77	857.00
713.02	868.00
713.27	849.00
713.52	880.00
713.78	865.00
714.03	892.00
714.28	870.00
714.53	913.00
714.78	901.00
715.04	899.00
715.29	910.00
715.54	912.00
715.79	852.00
716.05	894.00
716.30	913.00
716.55	908.00
716.80	884.00
717.05	884.00
717.31	891.00
717.56	900.00
717.81	868.00
718.06	859.00
718.31	876.00
718.57	904.00
718.82	877.00
719.07	915.00
719.32	915.00
719.57	915.00
719.83	874.00
720.08	897.00
720.33	895.00
720.58	864.00
720.83	844.00
721.09	904.00
721.34	900.00
721.59	923.00
721.84	874.00
722.09	880.00
722.35	894.00
722.60	900.00
722.85	853.00
723.10	878.00
723.35	866.00
723.61	900.00
723.86	895.00
724.11	899.00
724.36	883.00
724.61	880.00
724.87	883.00
725.12	869.00
725.37	861.00
725.62	867.00
725.87	865.00
726.12	877.00
726.38	871.00
726.63	905.00
726.88	866.00
727.13	899.00
727.38	890.00
727.64	895.00
727.89	872.00
728.14	881.00
728.39	872.00
728.64	908.00
728.89	877.00
729.15	891.00
729.40	902.00
729.65	911.00
729.90	857.00
730.15	882.00
730.40	922.00
730.66	887.00
730.91	853.00
731.16	877.00
731.41	901.00
731.66	903.00
731.91	869.00
732.17	916.00
732.42	896.00
732.67	887.00
732.92	881.00
733.17	918.00
733.42	901.00
733.68	911.00
733.93	859.00
734.18	872.00
734.43	873.00
734.68	886.00
734.93	871.00
735.18	906.00
735.44	896.00
735.69	897.00
735.94	869.00
736.19	878.00
736.44	885.00
736.69	937.00
736.95	874.00
737.20	887.00
737.45	912.00
737.70	905.00
737.95	895.00
738.20	914.00
738.45	900.00
738.70	907.00
738.96	887.00
739.21	900.00
739.46	905.00
739.71	911.00
739.96	890.00
740.21	906.00
740.46	970.00
740.72	932.00
740.97	876.00
741.22	906.00
741.47	877.00
741.72	899.00
741.97	861.00
742.22	875.00
742.47	898.00
742.73	882.00
742.98	858.00
743.23	860.00
743.48	869.00
743.73	900.00
743.98	871.00
744.23	879.00
744.48	907.00
744.74	880.00
744.99	851.00
745.24	897.00
745.49	894.00
745.74	910.00
745.99	871.00
746.24	879.00
746.49	873.00
746.74	873.00
747.00	876.00
747.25	867.00
747.50	854.00
747.75	890.00
748.00	837.00
748.25	883.00
748.50	900.00
748.75	906.00
749.00	907.00
749.26	916.00
749.51	909.00
749.76	906.00
750.01	873.00
750.26	891.00
750.51	902.00
750.76	900.00
751.01	871.00
751.26	882.00
751.51	893.00
751.77	909.00
752.02	867.00
752.27	863.00
752.52	884.00
752.77	922.00
753.02	883.00
753.27	893.00
753.52	887.00
753.77	875.00
754.02	871.00
754.27	876.00
754.52	872.00
754.78	883.00
755.03	879.00
755.28	894.00
755.53	893.00
755.78	886.00
756.03	855.00
756.28	899.00
756.53	912.00
756.78	914.00
757.03	874.00
757.28	914.00
757.53	911.00
757.79	867.00
758.04	869.00
758.29	929.00
758.54	919.00
758.79	906.00
759.04	851.00
759.29	866.00
759.54	877.00
759.79	892.00
760.04	875.00
760.29	881.00
760.54	881.00
760.79	889.00
761.04	862.00
761.29	888.00
761.55	872.00
761.80	890.00
762.05	852.00
762.30	881.00
762.55	892.00
762.80	908.00
763.05	889.00
763.30	909.00
763.55	917.00
763.80	895.00
764.05	852.00
764.30	895.00
764.55	911.00
764.80	912.00
765.05	859.00
765.30	904.00
765.55	907.00
765.80	887.00
766.05	843.00
766.30	878.00
766.56	889.00
766.81	914.00
767.06	904.00
767.31	894.00
767.56	866.00
767.81	881.00
768.06	873.00
768.31	885.00
768.56	882.00
768.81	938.00
769.06	886.00
769.31	897.00
769.56	888.00
769.81	921.00
770.06	870.00
770.31	877.00
770.56	898.00
770.81	875.00
771.06	842.00
771.31	887.00
771.56	889.00
771.81	893.00
772.06	886.00
772.31	912.00
772.56	901.00
772.81	917.00
773.06	875.00
773.31	903.00
773.56	886.00
773.81	868.00
774.06	858.00
774.31	873.00
774.56	883.00
774.81	905.00
775.06	880.00
775.31	914.00
775.56	906.00
775.81	896.00
776.06	864.00
776.31	900.00
776.56	912.00
776.82	912.00
777.07	870.00
777.32	875.00
777.57	908.00
777.82	925.00
778.07	850.00
778.32	876.00
778.57	888.00
778.82	908.00
779.07	883.00
779.32	886.00
779.57	871.00
779.82	893.00
780.07	872.00
780.32	886.00
780.56	887.00
780.81	913.00
781.06	860.00
781.31	864.00
781.56	918.00
781.81	906.00
782.06	865.00
782.31	902.00
782.56	899.00
782.81	927.00
783.06	868.00
783.31	888.00
783.56	887.00
783.81	922.00
784.06	863.00
784.31	874.00
784.56	859.00
784.81	929.00
785.06	882.00
785.31	902.00
785.56	880.00
785.81	864.00
786.06	846.00
786.31	886.00
786.56	875.00
786.81	895.00
787.06	882.00
787.31	888.00
787.56	874.00
787.81	874.00
788.06	852.00
788.31	891.00
788.56	879.00
788.81	927.00
789.06	877.00
789.31	883.00
789.56	889.00
789.81	888.00
790.06	864.00
790.31	906.00
790.56	884.00
790.80	878.00
791.05	859.00
791.30	847.00
791.55	865.00
791.80	879.00
792.05	865.00
792.30	866.00
792.55	862.00
792.80	887.00
793.05	865.00
793.30	880.00
793.55	887.00
793.80	890.00
794.05	867.00
794.30	890.00
794.55	893.00
794.80	899.00
795.05	857.00
795.30	868.00
795.54	875.00
795.79	908.00
796.04	866.00
796.29	895.00
796.54	882.00
796.79	908.00
797.04	875.00
797.29	899.00
797.54	922.00
797.79	915.00
798.04	877.00
798.29	874.00
798.54	865.00
798.79	869.00
799.04	848.00
799.29	868.00
799.53	874.00
799.78	881.00
800.03	878.00
800.28	859.00
800.53	888.00
800.78	934.00
801.03	859.00
801.28	880.00
801.53	882.00
801.78	915.00
802.03	896.00
802.28	888.00
802.52	896.00
802.77	901.00
803.02	885.00
803.27	899.00
803.52	857.00
803.77	898.00
804.02	902.00
804.27	906.00
804.52	903.00
804.77	902.00
805.02	887.00
805.27	910.00
805.51	899.00
805.76	922.00
806.01	869.00
806.26	888.00
806.51	891.00
806.76	918.00
807.01	890.00
807.26	873.00
807.51	906.00
807.76	884.00
808.00	837.00
808.25	872.00
808.50	897.00
808.75	877.00
809.00	854.00
809.25	887.00
809.50	888.00
809.75	919.00
810.00	889.00
810.24	873.00
810.49	835.00
810.74	876.00
810.99	877.00
811.24	887.00
811.49	900.00
811.74	919.00
811.99	848.00
812.24	879.00
812.48	857.00
812.73	873.00
812.98	838.00
813.23	857.00
813.48	876.00
813.73	877.00
813.98	831.00
814.23	861.00
814.47	866.00
814.72	885.00
814.97	845.00
815.22	897.00
815.47	862.00
815.72	889.00
815.97	865.00
816.22	870.00
816.46	885.00
816.71	896.00
816.96	884.00
817.21	905.00
817.46	876.00
817.71	904.00
817.96	857.00
818.20	858.00
818.45	863.00
818.70	888.00
818.95	854.00
819.20	881.00
819.45	887.00
819.70	884.00
819.94	856.00
820.19	887.00
820.44	888.00
820.69	918.00
820.94	863.00
821.19	898.00
821.44	934.00
821.68	932.00
821.93	874.00
822.18	886.00
822.43	914.00
822.68	916.00
822.93	881.00
823.17	888.00
823.42	902.00
823.67	872.00
823.92	835.00
824.17	870.00
824.42	874.00
824.67	885.00
824.91	879.00
825.16	886.00
825.41	897.00
825.66	878.00
825.91	852.00
826.16	873.00
826.40	900.00
826.65	909.00
826.90	855.00
827.15	869.00
827.40	892.00
827.65	917.00
827.89	829.00
828.14	862.00
828.39	886.00
828.64	889.00
828.89	844.00
829.13	866.00
829.38	862.00
829.63	883.00
829.88	851.00
830.13	865.00
830.38	863.00
830.62	880.00
830.87	859.00
831.12	883.00
831.37	917.00
831.62	915.00
831.86	874.00
832.11	878.00
832.36	851.00
832.61	910.00
832.86	858.00
833.10	888.00
833.35	876.00
833.60	902.00
833.85	875.00
834.10	893.00
834.35	927.00
834.59	910.00
834.84	853.00
835.09	893.00
835.34	868.00
835.59	899.00
835.83	876.00
836.08	890.00
836.33	884.00
836.58	899.00
836.83	872.00
837.07	891.00
837.32	893.00
837.57	885.00
837.82	868.00
838.06	886.00
838.31	908.00
838.56	926.00
838.81	859.00
839.06	894.00
839.30	888.00
839.55	913.00
839.80	855.00
840.05	890.00
840.30	908.00
840.54	934.00
840.79	874.00
841.04	881.00
841.29	903.00
841.53	919.00
841.78	867.00
842.03	860.00
842.28	850.00
842.53	858.00
842.77	865.00
843.02	890.00
843.27	877.00
843.52	901.00
843.76	872.00
844.01	886.00
844.26	885.00
844.51	922.00
844.75	870.00
845.00	875.00
845.25	895.00
845.50	904.00
845.75	864.00
845.99	898.00
846.24	890.00
846.49	889.00
846.74	846.00
846.98	857.00
847.23	880.00
847.48	901.00
847.73	861.00
847.97	872.00
848.22	921.00
848.47	911.00
848.72	876.00
848.96	870.00
849.21	885.00
849.46	885.00
849.71	860.00
849.95	877.00
850.20	870.00
850.45	890.00
850.70	838.00
850.94	882.00
851.19	885.00
851.44	899.00
851.69	836.00
851.93	878.00
852.18	899.00
852.43	892.00
852.68	890.00
852.92	914.00
853.17	922.00
853.42	924.00
853.66	892.00
853.91	909.00
854.16	894.00
854.41	922.00
854.65	858.00
854.90	874.00
855.15	882.00
855.40	892.00
855.64	891.00
855.89	862.00
856.14	872.00
856.39	872.00
856.63	842.00
856.88	868.00
857.13	880.00
857.37	868.00
857.62	850.00
857.87	862.00
858.12	870.00
858.36	884.00
858.61	824.00
858.86	876.00
859.10	899.00
859.35	891.00
859.60	852.00
859.85	846.00
860.09	861.00
860.34	912.00
860.59	879.00
860.83	882.00
861.08	876.00
861.33	921.00
861.58	876.00
861.82	885.00
862.07	898.00
862.32	895.00
862.56	874.00
862.81	885.00
863.06	885.00
863.30	871.00
863.55	874.00
863.80	876.00
864.05	880.00
864.29	890.00
864.54	879.00
864.79	888.00
865.03	894.00
865.28	917.00
865.53	874.00
865.77	851.00
866.02	889.00
866.27	901.00
866.51	876.00
866.76	870.00
867.01	865.00
867.26	884.00
867.50	865.00
867.75	866.00
868.00	882.00
868.24	906.00
868.49	859.00
868.74	866.00
868.98	880.00
869.23	909.00
869.48	890.00
869.72	886.00
869.97	899.00
870.22	914.00
870.46	872.00
870.71	887.00
870.96	888.00
871.20	907.00
871.45	844.00
871.70	871.00
871.94	913.00
872.19	917.00
872.44	882.00
872.68	865.00
872.93	881.00
873.18	885.00
873.42	865.00
873.67	883.00
873.92	910.00
874.16	886.00
874.41	878.00
874.66	894.00
874.90	898.00
875.15	911.00
875.40	884.00
875.64	896.00
875.89	882.00
876.14	909.00
876.38	871.00
876.63	871.00
876.88	886.00
877.12	876.00
877.37	858.00
877.62	905.00
877.86	892.00
878.11	902.00
878.36	845.00
878.60	883.00
878.85	884.00
879.09	899.00
879.34	880.00
879.59	892.00
879.83	911.00
880.08	938.00
880.33	889.00
880.57	891.00
880.82	889.00
881.07	898.00
881.31	876.00
881.56	896.00
881.80	868.00
882.05	880.00
882.30	837.00
882.54	847.00
882.79	903.00
883.04	938.00
883.28	898.00
883.53	883.00
883.77	897.00
884.02	913.00
884.27	874.00
884.51	874.00
884.76	890.00
885.01	898.00
885.25	856.00
885.50	894.00
885.74	886.00
885.99	924.00
886.24	876.00
886.48	878.00
886.73	894.00
886.98	918.00
887.22	899.00
887.47	892.00
887.71	902.00
887.96	886.00
888.21	874.00
888.45	850.00
888.70	872.00
888.94	930.00
889.19	851.00
889.44	865.00
889.68	884.00
889.93	931.00
890.17	893.00
890.42	868.00
890.67	901.00
890.91	980.00
891.16	870.00
891.40	863.00
891.65	868.00
891.90	901.00
892.14	840.00
892.39	870.00
892.63	894.00
892.88	930.00
893.13	887.00
893.37	857.00
893.62	861.00
893.86	906.00
894.11	872.00
894.36	868.00
894.60	861.00
894.85	894.00
895.09	883.00
895.34	923.00
895.59	898.00
895.83	893.00
896.08	862.00
896.32	857.00
896.57	874.00
896.81	873.00
897.06	864.00
897.31	870.00
897.55	902.00
897.80	882.00
898.04	842.00
898.29	875.00
898.53	881.00
898.78	907.00
899.03	875.00
899.27	862.00
899.52	878.00
899.76	907.00
900.01	869.00
900.25	897.00
900.50	888.00
900.75	892.00
900.99	852.00
901.24	927.00
901.48	894.00
901.73	908.00
901.97	874.00
902.22	882.00
902.47	904.00
902.71	892.00
902.96	859.00
903.20	876.00
903.45	898.00
903.69	909.00
903.94	875.00
904.18	858.00
904.43	872.00
904.68	888.00
904.92	852.00
905.17	871.00
905.41	900.00
905.66	908.00
905.90	904.00
906.15	902.00
906.39	907.00
906.64	885.00
906.88	845.00
907.13	869.00
907.38	908.00
907.62	922.00
907.87	865.00
908.11	896.00
908.36	859.00
908.60	888.00
908.85	838.00
909.09	873.00
909.34	866.00
909.58	894.00
909.83	856.00
910.07	875.00
910.32	916.00
910.56	927.00
910.81	854.00
911.06	894.00
911.30	898.00
911.55	886.00
911.79	872.00
912.04	866.00
912.28	865.00
912.53	912.00
912.77	885.00
913.02	876.00
913.26	879.00
913.51	899.00
913.75	879.00
914.00	878.00
914.24	895.00
914.49	893.00
914.73	873.00
914.98	891.00
915.22	928.00
915.47	893.00
915.71	859.00
915.96	889.00
916.20	897.00
916.45	873.00
916.69	844.00
916.94	872.00
917.18	888.00
917.43	899.00
917.67	860.00
917.92	860.00
918.16	899.00
918.41	909.00
918.65	862.00
918.90	878.00
919.14	853.00
919.39	876.00
919.63	844.00
919.88	858.00
920.12	899.00
920.37	902.00
920.61	860.00
920.86	882.00
921.10	886.00
921.35	880.00
921.59	860.00
921.84	896.00
922.08	911.00
922.33	906.00
922.57	854.00
922.82	852.00
923.06	887.00
923.31	902.00
923.55	849.00
923.80	888.00
924.04	888.00
924.29	911.00
924.53	866.00
924.78	869.00
925.02	868.00
925.27	881.00
925.51	875.00
925.76	905.00
926.00	895.00
926.25	884.00
926.49	868.00
926.73	896.00
926.98	892.00
927.22	915.00
927.47	892.00
927.71	885.00
927.96	907.00
928.20	896.00
928.45	882.00
928.69	914.00
928.94	898.00
929.18	886.00
929.43	900.00
929.67	878.00
929.91	880.00
930.16	890.00
930.40	846.00
930.65	862.00
930.89	896.00
931.14	924.00
931.38	855.00
931.63	884.00
931.87	906.00
932.12	923.00
932.36	860.00
932.60	862.00
932.85	898.00
933.09	886.00
933.34	849.00
933.58	884.00
933.83	884.00
934.07	902.00
934.32	875.00
934.56	889.00
934.80	909.00
935.05	940.00
935.29	885.00
935.54	897.00
935.78	893.00
936.03	899.00
936.27	844.00
936.52	857.00
936.76	880.00
937.00	890.00
937.25	879.00
937.49	900.00
937.74	922.00
937.98	902.00
938.23	864.00
938.47	874.00
938.71	877.00
938.96	891.00
939.20	865.00
939.45	872.00
939.69	865.00
939.94	896.00
940.18	856.00
940.42	869.00
940.67	891.00
940.91	884.00
941.16	859.00
941.40	860.00
941.64	882.00
941.89	902.00
942.13	850.00
942.38	891.00
942.62	963.00
942.87	922.00
943.11	885.00
943.35	861.00
943.60	898.00
943.84	923.00
944.09	883.00
944.33	908.00
944.57	921.00
944.82	886.00
945.06	863.00
945.31	879.00
945.55	881.00
945.79	893.00
946.04	861.00
946.28	886.00
946.53	883.00
946.77	901.00
947.01	841.00
947.26	896.00
947.50	870.00
947.75	898.00
947.99	876.00
948.23	882.00
948.48	868.00
948.72	889.00
948.97	876.00
949.21	895.00
949.45	893.00
949.70	912.00
949.94	874.00
950.18	874.00
950.43	881.00
950.67	893.00
950.92	869.00
951.16	846.00
951.40	874.00
951.65	896.00
951.89	877.00
952.13	889.00
952.38	913.00
952.62	911.00
952.87	846.00
953.11	889.00
953.35	923.00
953.60	896.00
953.84	830.00
954.08	850.00
954.33	874.00
954.57	898.00
954.82	884.00
955.06	852.00
955.30	875.00
955.55	901.00
955.79	880.00
956.03	864.00
956.28	877.00
956.52	892.00
956.76	892.00
957.01	890.00
957.25	881.00
957.50	896.00
957.74	868.00
957.98	875.00
958.23	918.00
958.47	907.00
958.71	877.00
958.96	914.00
959.20	914.00
959.44	896.00
959.69	872.00
959.93	877.00
960.17	907.00
960.42	918.00
960.66	880.00
960.90	879.00
961.15	881.00
961.39	877.00
961.64	837.00
961.88	857.00
962.12	900.00
962.37	896.00
962.61	866.00
962.85	861.00
963.10	897.00
963.34	901.00
963.58	850.00
963.83	886.00
964.07	908.00
964.31	901.00
964.56	890.00
964.80	877.00
965.04	875.00
965.29	900.00
965.53	854.00
965.77	870.00
966.02	842.00
966.26	877.00
966.50	846.00
966.74	878.00
966.99	904.00
967.23	904.00
967.47	878.00
967.72	885.00
967.96	886.00
968.20	894.00
968.45	849.00
968.69	870.00
968.93	861.00
969.18	876.00
969.42	877.00
969.66	880.00
969.91	876.00
970.15	905.00
970.39	856.00
970.64	890.00
970.88	899.00
971.12	900.00
971.36	872.00
971.61	848.00
971.85	885.00
972.09	884.00
972.34	861.00
972.58	881.00
972.82	889.00
973.07	917.00
973.31	853.00
973.55	870.00
973.79	916.00
974.04	928.00
974.28	890.00
974.52	891.00
974.77	874.00
975.01	928.00
975.25	880.00
975.50	876.00
975.74	908.00
975.98	917.00
976.22	879.00
976.47	870.00
976.71	880.00
976.95	896.00
977.20	899.00
977.44	884.00
977.68	898.00
977.92	905.00
978.17	870.00
978.41	868.00
978.65	884.00
978.90	887.00
979.14	883.00
979.38	885.00
979.62	875.00
979.87	874.00
980.11	852.00
980.35	881.00
980.59	902.00
980.84	899.00
981.08	866.00
981.32	870.00
981.57	899.00
981.81	900.00
982.05	865.00
982.29	863.00
982.54	884.00
982.78	890.00
983.02	860.00
983.26	888.00
983.51	910.00
983.75	916.00
983.99	855.00
984.23	882.00
984.48	876.00
984.72	900.00
984.96	850.00
985.20	870.00
985.45	938.00
985.69	907.00
985.93	873.00
986.17	907.00
986.42	889.00
986.66	878.00
986.90	838.00
987.14	864.00
987.39	888.00
987.63	866.00
987.87	843.00
988.11	852.00
988.36	893.00
988.60	905.00
988.84	891.00
989.08	867.00
989.33	905.00
989.57	907.00
989.81	852.00
990.05	837.00
990.30	876.00
990.54	864.00
990.78	848.00
991.02	868.00
991.27	874.00
991.51	882.00
991.75	863.00
991.99	882.00
992.23	882.00
992.48	874.00
992.72	857.00
992.96	857.00
993.20	882.00
993.45	896.00
993.69	892.00
993.93	857.00
994.17	876.00
994.41	878.00
994.66	830.00
994.90	869.00
995.14	921.00
995.38	893.00
995.63	872.00
995.87	875.00
996.11	914.00
996.35	907.00
996.59	855.00
996.84	870.00
997.08	891.00
997.32	875.00
997.56	856.00
997.80	863.00
998.05	875.00
998.29	877.00
998.53	855.00
998.77	890.00
999.01	904.00
999.26	902.00
999.50	870.00
999.74	862.00
999.98	887.00
1000.22	894.00
1000.47	856.00
1000.71	861.00
1000.95	915.00
1001.19	913.00
1001.43	876.00
1001.68	873.00
1001.92	880.00
1002.16	869.00
1002.40	839.00
1002.64	871.00
1002.89	891.00
1003.13	892.00
1003.37	877.00
1003.61	866.00
1003.85	896.00
1004.10	871.00
1004.34	863.00
1004.58	857.00
1004.82	911.00
1005.06	897.00
1005.30	867.00
1005.55	863.00
1005.79	897.00
1006.03	884.00
1006.27	874.00
1006.51	883.00
1006.76	893.00
1007.00	902.00
1007.24	868.00
1007.48	857.00
1007.72	900.00
1007.96	892.00
1008.21	870.00
1008.45	892.00
1008.69	876.00
1008.93	904.00
1009.17	869.00
1009.41	898.00
1009.66	914.00
1009.90	893.00
1010.14	864.00
1010.38	887.00
1010.62	902.00
1010.86	912.00
1011.10	873.00
1011.35	871.00
1011.59	862.00
1011.83	861.00
1012.07	857.00
1012.31	874.00
1012.55	876.00
1012.80	879.00
1013.04	872.00
1013.28	899.00
1013.52	882.00
1013.76	904.00
1014.00	856.00
1014.24	863.00
1014.49	892.00
1014.73	932.00
1014.97	910.00
1015.21	876.00
1015.45	918.00
1015.69	890.00
1015.93	870.00
1016.18	864.00
1016.42	902.00
1016.66	906.00
1016.90	860.00
1017.14	855.00
1017.38	870.00
1017.62	868.00
1017.87	869.00
1018.11	889.00
1018.35	888.00
1018.59	893.00
1018.83	854.00
1019.07	889.00
1019.31	909.00
1019.55	918.00
1019.80	871.00
1020.04	872.00
1020.28	871.00
1020.52	890.00
1020.76	870.00
1021.00	839.00
1021.24	855.00
1021.48	865.00
1021.73	874.00
1021.97	882.00
1022.21	882.00
1022.45	899.00
1022.69	875.00
1022.93	876.00
1023.17	886.00
1023.41	923.00
1023.65	890.00
1023.90	911.00
1024.14	904.00
1024.38	864.00
1024.62	832.00
1024.86	869.00
1025.10	902.00
1025.34	890.00
1025.58	846.00
1025.82	875.00
1026.07	920.00
1026.31	898.00
1026.55	862.00
1026.79	865.00
1027.03	884.00
1027.27	884.00
1027.51	851.00
1027.75	848.00
1027.99	873.00
1028.23	921.00
1028.47	906.00
1028.72	860.00
1028.96	893.00
1029.20	893.00
1029.44	871.00
1029.68	891.00
1029.92	878.00
1030.16	901.00
1030.40	830.00
1030.64	849.00
1030.88	871.00
1031.12	879.00
1031.37	848.00
1031.61	872.00
1031.85	915.00
1032.09	925.00
1032.33	874.00
1032.57	900.00
1032.81	880.00
1033.05	908.00
1033.29	885.00
1033.53	861.00
1033.77	934.00
1034.01	935.00
1034.25	885.00
1034.50	882.00
1034.74	885.00
1034.98	915.00
1035.22	894.00
1035.46	893.00
1035.70	914.00
1035.94	914.00
1036.18	875.00
1036.42	863.00
1036.66	858.00
1036.90	865.00
1037.14	855.00
1037.38	860.00
1037.62	881.00
1037.86	879.00
1038.10	871.00
1038.35	854.00
1038.59	876.00
1038.83	914.00
1039.07	875.00
1039.31	885.00
1039.55	859.00
1039.79	885.00
1040.03	846.00
1040.27	858.00
1040.51	908.00
1040.75	930.00
1040.99	891.00
1041.23	885.00
1041.47	894.00
1041.71	915.00
1041.95	878.00
1042.19	866.00
1042.43	920.00
1042.67	912.00
1042.91	876.00
1043.15	847.00
1043.39	904.00
1043.64	894.00
1043.88	869.00
1044.12	885.00
1044.36	938.00
1044.60	915.00
1044.84	888.00
1045.08	903.00
1045.32	907.00
1045.56	900.00
1045.80	871.00
1046.04	869.00
1046.28	901.00
1046.52	892.00
1046.76	841.00
1047.00	852.00
1047.24	904.00
1047.48	898.00
1047.72	869.00
1047.96	849.00
1048.20	902.00
1048.44	894.00
1048.68	860.00
1048.92	887.00
1049.16	900.00
1049.40	912.00
1049.64	875.00
1049.88	890.00
1050.12	912.00
1050.36	925.00
1050.60	878.00
1050.84	875.00
1051.08	880.00
1051.32	875.00
1051.56	866.00
1051.80	858.00
1052.04	879.00
1052.28	909.00
1052.52	857.00
1052.76	857.00
1053.00	882.00
1053.24	910.00
1053.48	865.00
1053.72	885.00
1053.96	894.00
1054.20	881.00
1054.44	877.00
1054.68	885.00
1054.92	884.00
1055.16	864.00
1055.40	853.00
1055.64	889.00
1055.88	908.00
1056.12	931.00
1056.36	841.00
1056.60	849.00
1056.84	907.00
1057.08	896.00
1057.32	869.00
1057.56	860.00
1057.80	887.00
1058.04	907.00
1058.28	866.00
1058.52	872.00
1058.76	902.00
1059.00	929.00
1059.24	868.00
1059.48	856.00
1059.72	887.00
1059.96	881.00
1060.20	878.00
1060.44	896.00
1060.68	933.00
1060.92	911.00
1061.16	855.00
1061.40	873.00
1061.64	871.00
1061.88	877.00
1062.11	856.00
1062.35	860.00
1062.59	867.00
1062.83	908.00
1063.07	880.00
1063.31	847.00
1063.55	869.00
1063.79	907.00
1064.03	872.00
1064.27	864.00
1064.51	891.00
1064.75	906.00
1064.99	877.00
1065.23	870.00
1065.47	876.00
1065.71	897.00
1065.95	874.00
1066.19	876.00
1066.43	912.00
1066.67	894.00
1066.91	887.00
1067.15	881.00
1067.38	877.00
1067.62	896.00
1067.86	857.00
1068.10	872.00
1068.34	919.00
1068.58	919.00
1068.82	868.00
1069.06	834.00
1069.30	876.00
1069.54	904.00
1069.78	892.00
1070.02	890.00
1070.26	927.00
1070.50	937.00
1070.74	873.00
1070.98	916.00
1071.21	910.00
1071.45	902.00
1071.69	865.00
1071.93	882.00
1072.17	905.00
1072.41	916.00
1072.65	897.00
1072.89	911.00
1073.13	894.00
1073.37	893.00
1073.61	871.00
1073.85	877.00
1074.09	865.00
1074.32	870.00
1074.56	879.00
1074.80	953.00
1075.04	1155.00
1075.28	996.00
1075.52	865.00
1075.76	876.00
1076.00	922.00
1076.24	924.00
1076.48	889.00
1076.72	865.00
1076.96	916.00
1077.19	896.00
1077.43	858.00
1077.67	898.00
1077.91	903.00
1078.15	875.00
1078.39	867.00
1078.63	881.00
1078.87	886.00
1079.11	888.00
1079.35	873.00
1079.58	864.00
1079.82	882.00
1080.06	893.00
1080.30	862.00
1080.54	904.00
1080.78	937.00
1081.02	898.00
1081.26	876.00
1081.50	899.00
1081.74	889.00
1081.97	891.00
1082.21	858.00
1082.45	889.00
1082.69	887.00
1082.93	866.00
1083.17	868.00
1083.41	876.00
1083.65	911.00
1083.88	928.00
1084.12	889.00
1084.36	884.00
1084.60	887.00
1084.84	887.00
1085.08	845.00
1085.32	867.00
1085.56	899.00
1085.80	890.00
1086.03	857.00
1086.27	863.00
1086.51	893.00
1086.75	906.00
1086.99	860.00
1087.23	852.00
1087.47	873.00
1087.70	902.00
1087.94	883.00
1088.18	904.00
1088.42	951.00
1088.66	900.00
1088.90	854.00
1089.14	867.00
1089.38	884.00
1089.61	890.00
1089.85	885.00
1090.09	886.00
1090.33	919.00
1090.57	920.00
1090.81	848.00
1091.05	872.00
1091.28	887.00
1091.52	910.00
1091.76	860.00
1092.00	875.00
1092.24	898.00
1092.48	926.00
1092.71	856.00
1092.95	901.00
1093.19	906.00
1093.43	898.00
1093.67	853.00
1093.91	886.00
1094.15	914.00
1094.38	910.00
1094.62	867.00
1094.86	871.00
1095.10	891.00
1095.34	901.00
1095.58	884.00
1095.81	875.00
1096.05	914.00
1096.29	900.00
1096.53	849.00
1096.77	896.00
1097.01	890.00
1097.24	904.00
1097.48	860.00
1097.72	885.00
1097.96	903.00
1098.20	903.00
1098.44	842.00
1098.67	858.00
1098.91	888.00
1099.15	898.00
1099.39	858.00
1099.63	862.00
1099.86	891.00
1100.10	899.00
1100.34	885.00
1100.58	878.00
1100.82	894.00
1101.06	881.00
1101.29	842.00
1101.53	876.00
1101.77	893.00
1102.01	875.00
1102.25	868.00
1102.48	885.00
1102.72	925.00
1102.96	902.00
1103.20	834.00
1103.44	849.00
1103.67	872.00
1103.91	889.00
1104.15	840.00
1104.39	861.00
1104.63	904.00
1104.86	874.00
1105.10	857.00
1105.34	876.00
1105.58	887.00
1105.82	887.00
1106.05	869.00
1106.29	880.00
1106.53	894.00
1106.77	918.00
1107.01	852.00
1107.24	892.00
1107.48	916.00
1107.72	913.00
1107.96	849.00
1108.20	873.00
1108.43	881.00
1108.67	881.00
1108.91	859.00
1109.15	848.00
1109.39	874.00
1109.62	899.00
1109.86	854.00
1110.10	865.00
1110.34	918.00
1110.57	944.00
1110.81	866.00
1111.05	889.00
1111.29	922.00
1111.53	922.00
1111.76	856.00
1112.00	909.00
1112.24	939.00
1112.48	910.00
1112.71	858.00
1112.95	862.00
1113.19	913.00
1113.43	900.00
1113.66	847.00
1113.90	882.00
1114.14	899.00
1114.38	907.00
1114.62	848.00
1114.85	884.00
1115.09	894.00
1115.33	950.00
1115.57	884.00
1115.80	873.00
1116.04	879.00
1116.28	890.00
1116.52	869.00
1116.75	875.00
1116.99	917.00
1117.23	909.00
1117.47	891.00
1117.70	896.00
1117.94	947.00
1118.18	881.00
1118.42	863.00
1118.65	898.00
1118.89	924.00
1119.13	913.00
1119.37	848.00
1119.60	896.00
1119.84	924.00
>>>>>End Processed Spectral Data<<<<<
